# wavenumber,absorbance
2000.001,0.079
2000.031,0.079
2000.061,0.079
2000.091,0.079
2000.121,0.079
2000.151,0.079
2000.182,0.079
2000.212,0.079
2000.242,0.079
2000.272,0.079
2000.302,0.079
2000.332,0.079
2000.362,0.079
2000.392,0.079
2000.423,0.079
2000.453,0.079
2000.483,0.079
2000.513,0.079
2000.543,0.079
2000.573,0.079
2000.603,0.079
2000.634,0.079
2000.664,0.079
2000.694,0.079
2000.724,0.079
2000.754,0.079
2000.784,0.079
2000.814,0.079
2000.844,0.079
2000.875,0.079
2000.905,0.079
2000.935,0.079
2000.965,0.079
2000.995,0.079
2001.025,0.079
2001.055,0.079
2001.086,0.079
2001.116,0.079
2001.146,0.079
2001.176,0.079
2001.206,0.079
2001.236,0.079
2001.266,0.079
2001.297,0.079
2001.327,0.079
2001.357,0.079
2001.387,0.079
2001.417,0.079
2001.447,0.079
2001.477,0.079
2001.507,0.079
2001.537,0.079
2001.568,0.079
2001.598,0.079
2001.628,0.079
2001.658,0.079
2001.688,0.079
2001.718,0.078
2001.748,0.078
2001.779,0.079
2001.809,0.079
2001.839,0.079
2001.869,0.079
2001.899,0.079
2001.929,0.079
2001.959,0.079
2001.990,0.079
2002.020,0.079
2002.050,0.079
2002.080,0.079
2002.110,0.079
2002.140,0.079
2002.170,0.079
2002.200,0.079
2002.231,0.079
2002.261,0.079
2002.291,0.079
2002.321,0.079
2002.351,0.079
2002.381,0.079
2002.411,0.079
2002.442,0.079
2002.472,0.079
2002.502,0.079
2002.532,0.079
2002.562,0.079
2002.592,0.079
2002.622,0.079
2002.652,0.078
2002.682,0.079
2002.713,0.079
2002.743,0.079
2002.773,0.079
2002.803,0.079
2002.833,0.079
2002.863,0.079
2002.893,0.078
2002.924,0.078
2002.954,0.078
2002.984,0.078
2003.014,0.078
2003.044,0.078
2003.074,0.078
2003.104,0.078
2003.135,0.078
2003.165,0.079
2003.195,0.079
2003.225,0.079
2003.255,0.079
2003.285,0.079
2003.315,0.079
2003.345,0.080
2003.376,0.080
2003.406,0.081
2003.436,0.081
2003.466,0.081
2003.496,0.082
2003.526,0.082
2003.556,0.082
2003.587,0.082
2003.617,0.082
2003.647,0.081
2003.677,0.081
2003.707,0.080
2003.737,0.080
2003.767,0.080
2003.797,0.079
2003.828,0.079
2003.858,0.079
2003.888,0.079
2003.918,0.079
2003.948,0.079
2003.978,0.079
2004.008,0.079
2004.038,0.079
2004.069,0.079
2004.099,0.079
2004.129,0.079
2004.159,0.079
2004.189,0.079
2004.219,0.079
2004.249,0.079
2004.280,0.079
2004.310,0.079
2004.340,0.079
2004.370,0.079
2004.400,0.079
2004.430,0.079
2004.460,0.079
2004.490,0.079
2004.521,0.079
2004.551,0.079
2004.581,0.079
2004.611,0.079
2004.641,0.079
2004.671,0.079
2004.701,0.079
2004.732,0.079
2004.762,0.079
2004.792,0.079
2004.822,0.079
2004.852,0.079
2004.882,0.079
2004.912,0.079
2004.943,0.079
2004.973,0.079
2005.003,0.079
2005.033,0.079
2005.063,0.079
2005.093,0.079
2005.123,0.079
2005.153,0.079
2005.183,0.079
2005.214,0.079
2005.244,0.079
2005.274,0.079
2005.304,0.079
2005.334,0.079
2005.364,0.079
2005.394,0.079
2005.425,0.079
2005.455,0.079
2005.485,0.079
2005.515,0.079
2005.545,0.079
2005.575,0.079
2005.605,0.079
2005.635,0.079
2005.666,0.079
2005.696,0.079
2005.726,0.078
2005.756,0.078
2005.786,0.078
2005.816,0.078
2005.846,0.078
2005.877,0.078
2005.907,0.079
2005.937,0.079
2005.967,0.079
2005.997,0.079
2006.027,0.079
2006.057,0.079
2006.088,0.079
2006.118,0.079
2006.148,0.079
2006.178,0.079
2006.208,0.079
2006.238,0.079
2006.268,0.079
2006.298,0.079
2006.328,0.079
2006.359,0.079
2006.389,0.079
2006.419,0.079
2006.449,0.079
2006.479,0.079
2006.509,0.079
2006.539,0.079
2006.570,0.079
2006.600,0.079
2006.630,0.079
2006.660,0.079
2006.690,0.079
2006.720,0.079
2006.750,0.079
2006.781,0.079
2006.811,0.079
2006.841,0.079
2006.871,0.079
2006.901,0.079
2006.931,0.079
2006.961,0.079
2006.991,0.079
2007.022,0.079
2007.052,0.079
2007.082,0.079
2007.112,0.079
2007.142,0.079
2007.172,0.079
2007.202,0.079
2007.233,0.079
2007.263,0.079
2007.293,0.079
2007.323,0.079
2007.353,0.079
2007.383,0.079
2007.413,0.079
2007.443,0.079
2007.474,0.079
2007.504,0.079
2007.534,0.079
2007.564,0.079
2007.594,0.079
2007.624,0.079
2007.654,0.079
2007.684,0.079
2007.715,0.080
2007.745,0.080
2007.775,0.081
2007.805,0.081
2007.835,0.081
2007.865,0.081
2007.895,0.081
2007.926,0.081
2007.956,0.080
2007.986,0.080
2008.016,0.079
2008.046,0.079
2008.076,0.079
2008.106,0.079
2008.136,0.079
2008.167,0.079
2008.197,0.079
2008.227,0.079
2008.257,0.079
2008.287,0.079
2008.317,0.080
2008.347,0.080
2008.378,0.081
2008.408,0.082
2008.438,0.082
2008.468,0.083
2008.498,0.083
2008.528,0.083
2008.558,0.083
2008.589,0.082
2008.619,0.081
2008.649,0.081
2008.679,0.080
2008.709,0.079
2008.739,0.079
2008.769,0.079
2008.799,0.079
2008.829,0.079
2008.860,0.079
2008.890,0.079
2008.920,0.079
2008.950,0.079
2008.980,0.079
2009.010,0.079
2009.040,0.079
2009.071,0.079
2009.101,0.079
2009.131,0.079
2009.161,0.079
2009.191,0.079
2009.221,0.079
2009.251,0.079
2009.281,0.079
2009.312,0.079
2009.342,0.079
2009.372,0.079
2009.402,0.079
2009.432,0.079
2009.462,0.079
2009.492,0.079
2009.523,0.079
2009.553,0.079
2009.583,0.079
2009.613,0.079
2009.643,0.079
2009.673,0.079
2009.703,0.079
2009.734,0.079
2009.764,0.079
2009.794,0.079
2009.824,0.079
2009.854,0.079
2009.884,0.079
2009.914,0.079
2009.944,0.079
2009.975,0.079
2010.005,0.079
2010.035,0.079
2010.065,0.079
2010.095,0.079
2010.125,0.079
2010.155,0.079
2010.185,0.079
2010.216,0.079
2010.246,0.079
2010.276,0.079
2010.306,0.079
2010.336,0.079
2010.366,0.079
2010.396,0.079
2010.427,0.079
2010.457,0.079
2010.487,0.079
2010.517,0.079
2010.547,0.079
2010.577,0.079
2010.607,0.079
2010.637,0.079
2010.668,0.079
2010.698,0.079
2010.728,0.079
2010.758,0.079
2010.788,0.079
2010.818,0.079
2010.848,0.079
2010.879,0.079
2010.909,0.079
2010.939,0.079
2010.969,0.079
2010.999,0.079
2011.029,0.079
2011.059,0.079
2011.089,0.079
2011.120,0.079
2011.150,0.079
2011.180,0.079
2011.210,0.079
2011.240,0.079
2011.270,0.079
2011.300,0.079
2011.330,0.079
2011.361,0.079
2011.391,0.079
2011.421,0.079
2011.451,0.079
2011.481,0.079
2011.511,0.079
2011.541,0.079
2011.572,0.079
2011.602,0.079
2011.632,0.079
2011.662,0.079
2011.692,0.079
2011.722,0.079
2011.752,0.079
2011.782,0.079
2011.813,0.079
2011.843,0.079
2011.873,0.079
2011.903,0.079
2011.933,0.079
2011.963,0.079
2011.993,0.079
2012.024,0.080
2012.054,0.081
2012.084,0.081
2012.114,0.082
2012.144,0.082
2012.174,0.083
2012.204,0.083
2012.234,0.082
2012.265,0.082
2012.295,0.081
2012.325,0.080
2012.355,0.080
2012.385,0.079
2012.415,0.079
2012.445,0.079
2012.476,0.079
2012.506,0.079
2012.536,0.079
2012.566,0.079
2012.596,0.079
2012.626,0.079
2012.656,0.079
2012.686,0.079
2012.717,0.079
2012.747,0.079
2012.777,0.080
2012.807,0.080
2012.837,0.080
2012.867,0.080
2012.897,0.080
2012.927,0.080
2012.958,0.079
2012.988,0.079
2013.018,0.079
2013.048,0.079
2013.078,0.079
2013.108,0.080
2013.138,0.080
2013.169,0.081
2013.199,0.082
2013.229,0.083
2013.259,0.084
2013.289,0.084
2013.319,0.085
2013.349,0.084
2013.380,0.084
2013.410,0.083
2013.440,0.082
2013.470,0.081
2013.500,0.080
2013.530,0.080
2013.560,0.079
2013.590,0.079
2013.621,0.079
2013.651,0.079
2013.681,0.079
2013.711,0.079
2013.741,0.079
2013.771,0.079
2013.801,0.079
2013.831,0.079
2013.862,0.079
2013.892,0.079
2013.922,0.079
2013.952,0.079
2013.982,0.079
2014.012,0.079
2014.042,0.079
2014.073,0.079
2014.103,0.079
2014.133,0.079
2014.163,0.079
2014.193,0.079
2014.223,0.079
2014.253,0.079
2014.283,0.079
2014.314,0.079
2014.344,0.079
2014.374,0.079
2014.404,0.079
2014.434,0.079
2014.464,0.079
2014.494,0.079
2014.525,0.079
2014.555,0.079
2014.585,0.079
2014.615,0.079
2014.645,0.079
2014.675,0.079
2014.705,0.079
2014.735,0.079
2014.766,0.079
2014.796,0.079
2014.826,0.079
2014.856,0.079
2014.886,0.079
2014.916,0.079
2014.946,0.079
2014.977,0.079
2015.007,0.079
2015.037,0.079
2015.067,0.079
2015.097,0.079
2015.127,0.079
2015.157,0.079
2015.187,0.079
2015.218,0.079
2015.248,0.079
2015.278,0.079
2015.308,0.079
2015.338,0.079
2015.368,0.079
2015.398,0.079
2015.428,0.079
2015.459,0.079
2015.489,0.079
2015.519,0.079
2015.549,0.079
2015.579,0.079
2015.609,0.079
2015.639,0.079
2015.670,0.079
2015.700,0.079
2015.730,0.079
2015.760,0.079
2015.790,0.079
2015.820,0.079
2015.850,0.079
2015.880,0.079
2015.911,0.079
2015.941,0.079
2015.971,0.079
2016.001,0.079
2016.031,0.079
2016.061,0.079
2016.091,0.079
2016.122,0.079
2016.152,0.079
2016.182,0.079
2016.212,0.079
2016.242,0.079
2016.272,0.079
2016.302,0.080
2016.333,0.081
2016.363,0.082
2016.393,0.082
2016.423,0.083
2016.453,0.084
2016.483,0.084
2016.513,0.084
2016.543,0.083
2016.573,0.082
2016.604,0.081
2016.634,0.080
2016.664,0.079
2016.694,0.078
2016.724,0.077
2016.754,0.077
2016.784,0.077
2016.815,0.077
2016.845,0.077
2016.875,0.077
2016.905,0.078
2016.935,0.078
2016.965,0.079
2016.995,0.079
2017.026,0.080
2017.056,0.080
2017.086,0.080
2017.116,0.080
2017.146,0.080
2017.176,0.080
2017.206,0.080
2017.236,0.080
2017.267,0.079
2017.297,0.079
2017.327,0.079
2017.357,0.079
2017.387,0.079
2017.417,0.079
2017.447,0.079
2017.478,0.079
2017.508,0.079
2017.538,0.079
2017.568,0.079
2017.598,0.079
2017.628,0.079
2017.658,0.079
2017.688,0.079
2017.719,0.079
2017.749,0.079
2017.779,0.079
2017.809,0.079
2017.839,0.079
2017.869,0.079
2017.899,0.080
2017.929,0.081
2017.960,0.082
2017.990,0.083
2018.020,0.085
2018.050,0.086
2018.080,0.087
2018.110,0.088
2018.140,0.088
2018.171,0.087
2018.201,0.085
2018.231,0.084
2018.261,0.082
2018.291,0.081
2018.321,0.080
2018.351,0.079
2018.381,0.079
2018.412,0.079
2018.442,0.079
2018.472,0.079
2018.502,0.079
2018.532,0.079
2018.562,0.079
2018.592,0.079
2018.623,0.079
2018.653,0.079
2018.683,0.079
2018.713,0.079
2018.743,0.079
2018.773,0.079
2018.803,0.079
2018.833,0.079
2018.864,0.079
2018.894,0.079
2018.924,0.079
2018.954,0.079
2018.984,0.079
2019.014,0.078
2019.044,0.078
2019.074,0.078
2019.105,0.078
2019.135,0.078
2019.165,0.079
2019.195,0.079
2019.225,0.079
2019.255,0.079
2019.285,0.079
2019.316,0.079
2019.346,0.079
2019.376,0.079
2019.406,0.079
2019.436,0.079
2019.466,0.079
2019.496,0.079
2019.526,0.079
2019.557,0.079
2019.587,0.079
2019.617,0.079
2019.647,0.079
2019.677,0.079
2019.707,0.079
2019.737,0.079
2019.768,0.079
2019.798,0.079
2019.828,0.079
2019.858,0.079
2019.888,0.079
2019.918,0.079
2019.948,0.079
2019.979,0.079
2020.009,0.079
2020.039,0.079
2020.069,0.079
2020.099,0.079
2020.129,0.079
2020.159,0.079
2020.189,0.079
2020.219,0.079
2020.250,0.079
2020.280,0.079
2020.310,0.079
2020.340,0.079
2020.370,0.079
2020.400,0.079
2020.430,0.079
2020.461,0.079
2020.491,0.079
2020.521,0.079
2020.551,0.080
2020.581,0.081
2020.611,0.082
2020.641,0.083
2020.672,0.084
2020.702,0.085
2020.732,0.086
2020.762,0.086
2020.792,0.086
2020.822,0.085
2020.852,0.083
2020.882,0.082
2020.913,0.081
2020.943,0.080
2020.973,0.079
2021.003,0.079
2021.033,0.079
2021.063,0.079
2021.093,0.079
2021.124,0.079
2021.154,0.079
2021.184,0.080
2021.214,0.080
2021.244,0.080
2021.274,0.081
2021.304,0.081
2021.334,0.081
2021.365,0.081
2021.395,0.081
2021.425,0.080
2021.455,0.080
2021.485,0.079
2021.515,0.079
2021.545,0.079
2021.575,0.079
2021.606,0.079
2021.636,0.079
2021.666,0.079
2021.696,0.079
2021.726,0.079
2021.756,0.079
2021.786,0.079
2021.817,0.079
2021.847,0.079
2021.877,0.079
2021.907,0.079
2021.937,0.079
2021.967,0.079
2021.997,0.079
2022.027,0.079
2022.058,0.079
2022.088,0.079
2022.118,0.079
2022.148,0.079
2022.178,0.079
2022.208,0.079
2022.238,0.079
2022.269,0.079
2022.299,0.079
2022.329,0.079
2022.359,0.079
2022.389,0.079
2022.419,0.079
2022.449,0.079
2022.479,0.079
2022.510,0.079
2022.540,0.079
2022.570,0.079
2022.600,0.079
2022.630,0.079
2022.660,0.080
2022.690,0.081
2022.720,0.083
2022.751,0.085
2022.781,0.088
2022.811,0.090
2022.841,0.092
2022.871,0.093
2022.901,0.093
2022.931,0.092
2022.962,0.090
2022.992,0.088
2023.022,0.085
2023.052,0.083
2023.082,0.081
2023.112,0.080
2023.142,0.079
2023.172,0.079
2023.203,0.079
2023.233,0.079
2023.263,0.079
2023.293,0.079
2023.323,0.079
2023.353,0.079
2023.383,0.079
2023.414,0.079
2023.444,0.079
2023.474,0.079
2023.504,0.079
2023.534,0.079
2023.564,0.079
2023.594,0.079
2023.625,0.079
2023.655,0.079
2023.685,0.079
2023.715,0.079
2023.745,0.079
2023.775,0.079
2023.805,0.079
2023.835,0.079
2023.865,0.079
2023.896,0.079
2023.926,0.079
2023.956,0.079
2023.986,0.079
2024.016,0.079
2024.046,0.079
2024.076,0.079
2024.107,0.079
2024.137,0.079
2024.167,0.079
2024.197,0.079
2024.227,0.079
2024.257,0.079
2024.287,0.079
2024.318,0.079
2024.348,0.079
2024.378,0.079
2024.408,0.079
2024.438,0.079
2024.468,0.079
2024.498,0.079
2024.528,0.079
2024.559,0.079
2024.589,0.079
2024.619,0.079
2024.649,0.079
2024.679,0.079
2024.709,0.079
2024.739,0.079
2024.770,0.080
2024.800,0.080
2024.830,0.082
2024.860,0.083
2024.890,0.085
2024.920,0.086
2024.950,0.087
2024.980,0.088
2025.010,0.088
2025.041,0.087
2025.071,0.086
2025.101,0.085
2025.131,0.083
2025.161,0.081
2025.191,0.080
2025.221,0.079
2025.252,0.079
2025.282,0.079
2025.312,0.079
2025.342,0.079
2025.372,0.080
2025.402,0.080
2025.432,0.080
2025.463,0.081
2025.493,0.081
2025.523,0.081
2025.553,0.081
2025.583,0.081
2025.613,0.080
2025.643,0.080
2025.673,0.080
2025.704,0.079
2025.734,0.079
2025.764,0.079
2025.794,0.079
2025.824,0.079
2025.854,0.079
2025.884,0.079
2025.915,0.079
2025.945,0.079
2025.975,0.079
2026.005,0.079
2026.035,0.079
2026.065,0.079
2026.095,0.079
2026.125,0.079
2026.156,0.079
2026.186,0.079
2026.216,0.079
2026.246,0.079
2026.276,0.079
2026.306,0.079
2026.336,0.079
2026.366,0.079
2026.397,0.079
2026.427,0.079
2026.457,0.079
2026.487,0.079
2026.517,0.079
2026.547,0.079
2026.577,0.079
2026.608,0.079
2026.638,0.079
2026.668,0.079
2026.698,0.079
2026.728,0.079
2026.758,0.079
2026.788,0.079
2026.818,0.079
2026.849,0.079
2026.879,0.079
2026.909,0.079
2026.939,0.079
2026.969,0.079
2026.999,0.079
2027.029,0.079
2027.060,0.079
2027.090,0.079
2027.120,0.079
2027.150,0.079
2027.180,0.079
2027.210,0.079
2027.240,0.079
2027.271,0.079
2027.301,0.079
2027.331,0.079
2027.361,0.080
2027.391,0.081
2027.421,0.083
2027.451,0.085
2027.481,0.088
2027.511,0.092
2027.542,0.095
2027.572,0.098
2027.602,0.100
2027.632,0.100
2027.662,0.098
2027.692,0.095
2027.722,0.092
2027.753,0.088
2027.783,0.085
2027.813,0.083
2027.843,0.081
2027.873,0.080
2027.903,0.079
2027.933,0.079
2027.964,0.079
2027.994,0.079
2028.024,0.079
2028.054,0.079
2028.084,0.079
2028.114,0.079
2028.144,0.079
2028.174,0.079
2028.205,0.079
2028.235,0.079
2028.265,0.079
2028.295,0.079
2028.325,0.079
2028.355,0.079
2028.385,0.079
2028.416,0.079
2028.446,0.079
2028.476,0.079
2028.506,0.079
2028.536,0.079
2028.566,0.079
2028.596,0.079
2028.626,0.079
2028.657,0.079
2028.687,0.079
2028.717,0.079
2028.747,0.079
2028.777,0.079
2028.807,0.079
2028.837,0.079
2028.867,0.079
2028.898,0.079
2028.928,0.079
2028.958,0.079
2028.988,0.080
2029.018,0.081
2029.048,0.083
2029.078,0.085
2029.109,0.087
2029.139,0.088
2029.169,0.090
2029.199,0.091
2029.229,0.090
2029.259,0.089
2029.289,0.088
2029.319,0.086
2029.350,0.084
2029.380,0.082
2029.410,0.081
2029.440,0.080
2029.470,0.080
2029.500,0.080
2029.530,0.080
2029.561,0.081
2029.591,0.081
2029.621,0.082
2029.651,0.082
2029.681,0.082
2029.711,0.082
2029.741,0.082
2029.771,0.081
2029.802,0.081
2029.832,0.080
2029.862,0.080
2029.892,0.079
2029.922,0.079
2029.952,0.079
2029.982,0.079
2030.012,0.079
2030.043,0.079
2030.073,0.079
2030.103,0.079
2030.133,0.079
2030.163,0.079
2030.193,0.079
2030.223,0.079
2030.254,0.079
2030.284,0.079
2030.314,0.079
2030.344,0.079
2030.374,0.079
2030.404,0.079
2030.434,0.079
2030.464,0.079
2030.495,0.079
2030.525,0.079
2030.555,0.079
2030.585,0.079
2030.615,0.079
2030.645,0.079
2030.675,0.079
2030.706,0.079
2030.736,0.079
2030.766,0.079
2030.796,0.079
2030.826,0.079
2030.856,0.079
2030.886,0.079
2030.917,0.079
2030.947,0.079
2030.977,0.079
2031.007,0.079
2031.037,0.079
2031.067,0.079
2031.097,0.079
2031.127,0.079
2031.158,0.079
2031.188,0.079
2031.218,0.079
2031.248,0.079
2031.278,0.079
2031.308,0.079
2031.338,0.079
2031.368,0.079
2031.399,0.079
2031.429,0.079
2031.459,0.079
2031.489,0.079
2031.519,0.079
2031.549,0.079
2031.579,0.079
2031.609,0.079
2031.640,0.079
2031.670,0.079
2031.700,0.079
2031.730,0.079
2031.760,0.079
2031.790,0.079
2031.820,0.079
2031.851,0.079
2031.881,0.079
2031.911,0.079
2031.941,0.079
2031.971,0.079
2032.001,0.079
2032.031,0.079
2032.062,0.080
2032.092,0.081
2032.122,0.083
2032.152,0.086
2032.182,0.090
2032.212,0.095
2032.242,0.100
2032.272,0.104
2032.303,0.107
2032.333,0.107
2032.363,0.106
2032.393,0.102
2032.423,0.097
2032.453,0.092
2032.483,0.088
2032.514,0.084
2032.544,0.082
2032.574,0.080
2032.604,0.080
2032.634,0.079
2032.664,0.079
2032.694,0.079
2032.724,0.079
2032.755,0.079
2032.785,0.079
2032.815,0.079
2032.845,0.079
2032.875,0.079
2032.905,0.079
2032.935,0.079
2032.965,0.079
2032.996,0.079
2033.026,0.079
2033.056,0.079
2033.086,0.079
2033.116,0.079
2033.146,0.080
2033.176,0.081
2033.207,0.082
2033.237,0.084
2033.267,0.086
2033.297,0.089
2033.327,0.091
2033.357,0.093
2033.387,0.094
2033.417,0.093
2033.448,0.092
2033.478,0.089
2033.508,0.087
2033.538,0.084
2033.568,0.082
2033.598,0.081
2033.628,0.080
2033.659,0.080
2033.689,0.081
2033.719,0.081
2033.749,0.082
2033.779,0.083
2033.809,0.083
2033.839,0.083
2033.869,0.083
2033.900,0.082
2033.930,0.081
2033.960,0.081
2033.990,0.080
2034.020,0.079
2034.050,0.079
2034.080,0.079
2034.110,0.079
2034.141,0.079
2034.171,0.079
2034.201,0.079
2034.231,0.079
2034.261,0.079
2034.291,0.079
2034.321,0.079
2034.352,0.079
2034.382,0.079
2034.412,0.079
2034.442,0.079
2034.472,0.079
2034.502,0.079
2034.532,0.079
2034.563,0.079
2034.593,0.079
2034.623,0.079
2034.653,0.079
2034.683,0.078
2034.713,0.078
2034.743,0.079
2034.773,0.079
2034.804,0.079
2034.834,0.079
2034.864,0.079
2034.894,0.079
2034.924,0.079
2034.954,0.079
2034.984,0.079
2035.015,0.079
2035.045,0.079
2035.075,0.079
2035.105,0.079
2035.135,0.079
2035.165,0.079
2035.195,0.079
2035.225,0.079
2035.255,0.079
2035.286,0.079
2035.316,0.079
2035.346,0.079
2035.376,0.079
2035.406,0.079
2035.436,0.079
2035.466,0.079
2035.497,0.079
2035.527,0.079
2035.557,0.079
2035.587,0.079
2035.617,0.079
2035.647,0.079
2035.677,0.079
2035.708,0.079
2035.738,0.079
2035.768,0.079
2035.798,0.079
2035.828,0.079
2035.858,0.079
2035.888,0.079
2035.918,0.079
2035.949,0.079
2035.979,0.079
2036.009,0.079
2036.039,0.079
2036.069,0.079
2036.099,0.079
2036.129,0.079
2036.160,0.079
2036.190,0.079
2036.220,0.079
2036.250,0.079
2036.280,0.079
2036.310,0.079
2036.340,0.079
2036.370,0.079
2036.401,0.079
2036.431,0.079
2036.461,0.079
2036.491,0.079
2036.521,0.079
2036.551,0.079
2036.581,0.078
2036.611,0.078
2036.642,0.079
2036.672,0.079
2036.702,0.079
2036.732,0.080
2036.762,0.082
2036.792,0.084
2036.822,0.089
2036.853,0.094
2036.883,0.100
2036.913,0.107
2036.943,0.112
2036.973,0.116
2037.003,0.117
2037.033,0.114
2037.063,0.110
2037.094,0.104
2037.124,0.097
2037.154,0.091
2037.184,0.086
2037.214,0.083
2037.244,0.081
2037.274,0.080
2037.305,0.081
2037.335,0.082
2037.365,0.084
2037.395,0.086
2037.425,0.089
2037.455,0.092
2037.485,0.095
2037.516,0.097
2037.546,0.097
2037.576,0.096
2037.606,0.094
2037.636,0.091
2037.666,0.088
2037.696,0.085
2037.726,0.083
2037.756,0.082
2037.787,0.082
2037.817,0.082
2037.847,0.083
2037.877,0.083
2037.907,0.084
2037.937,0.084
2037.967,0.084
2037.998,0.083
2038.028,0.082
2038.058,0.081
2038.088,0.081
2038.118,0.080
2038.148,0.079
2038.178,0.079
2038.208,0.079
2038.239,0.079
2038.269,0.079
2038.299,0.079
2038.329,0.079
2038.359,0.079
2038.389,0.079
2038.419,0.079
2038.450,0.079
2038.480,0.079
2038.510,0.079
2038.540,0.079
2038.570,0.079
2038.600,0.079
2038.630,0.079
2038.661,0.079
2038.691,0.079
2038.721,0.079
2038.751,0.079
2038.781,0.079
2038.811,0.079
2038.841,0.079
2038.871,0.079
2038.901,0.079
2038.932,0.079
2038.962,0.079
2038.992,0.079
2039.022,0.079
2039.052,0.079
2039.082,0.079
2039.112,0.079
2039.143,0.079
2039.173,0.079
2039.203,0.079
2039.233,0.079
2039.263,0.079
2039.293,0.079
2039.323,0.079
2039.354,0.079
2039.384,0.079
2039.414,0.079
2039.444,0.079
2039.474,0.079
2039.504,0.079
2039.534,0.079
2039.564,0.079
2039.595,0.079
2039.625,0.079
2039.655,0.079
2039.685,0.079
2039.715,0.079
2039.745,0.079
2039.775,0.079
2039.806,0.079
2039.836,0.079
2039.866,0.079
2039.896,0.079
2039.926,0.079
2039.956,0.079
2039.986,0.079
2040.016,0.079
2040.047,0.079
2040.077,0.079
2040.107,0.079
2040.137,0.079
2040.167,0.079
2040.197,0.079
2040.227,0.079
2040.257,0.079
2040.288,0.079
2040.318,0.079
2040.348,0.079
2040.378,0.079
2040.408,0.079
2040.438,0.079
2040.468,0.079
2040.499,0.079
2040.529,0.079
2040.559,0.079
2040.589,0.079
2040.619,0.079
2040.649,0.079
2040.679,0.079
2040.709,0.079
2040.740,0.079
2040.770,0.079
2040.800,0.079
2040.830,0.079
2040.860,0.079
2040.890,0.079
2040.920,0.079
2040.951,0.079
2040.981,0.079
2041.011,0.079
2041.041,0.079
2041.071,0.079
2041.101,0.079
2041.131,0.079
2041.161,0.078
2041.192,0.078
2041.222,0.078
2041.252,0.078
2041.282,0.078
2041.312,0.078
2041.342,0.079
2041.372,0.080
2041.402,0.083
2041.433,0.087
2041.463,0.094
2041.493,0.104
2041.523,0.114
2041.553,0.126
2041.583,0.136
2041.613,0.143
2041.644,0.145
2041.674,0.142
2041.704,0.135
2041.734,0.125
2041.764,0.114
2041.794,0.103
2041.824,0.095
2041.854,0.090
2041.885,0.087
2041.915,0.085
2041.945,0.085
2041.975,0.085
2042.005,0.085
2042.035,0.085
2042.065,0.084
2042.096,0.083
2042.126,0.082
2042.156,0.081
2042.186,0.080
2042.216,0.080
2042.246,0.079
2042.276,0.079
2042.307,0.079
2042.337,0.079
2042.367,0.079
2042.397,0.079
2042.427,0.079
2042.457,0.079
2042.487,0.079
2042.517,0.079
2042.547,0.079
2042.578,0.079
2042.608,0.079
2042.638,0.079
2042.668,0.079
2042.698,0.079
2042.728,0.079
2042.758,0.079
2042.789,0.079
2042.819,0.079
2042.849,0.079
2042.879,0.079
2042.909,0.079
2042.939,0.079
2042.969,0.079
2043.000,0.079
2043.030,0.079
2043.060,0.079
2043.090,0.079
2043.120,0.079
2043.150,0.079
2043.180,0.079
2043.210,0.079
2043.241,0.079
2043.271,0.079
2043.301,0.079
2043.331,0.079
2043.361,0.079
2043.391,0.079
2043.421,0.079
2043.452,0.079
2043.482,0.079
2043.512,0.079
2043.542,0.079
2043.572,0.079
2043.602,0.079
2043.632,0.079
2043.662,0.079
2043.693,0.079
2043.723,0.079
2043.753,0.079
2043.783,0.079
2043.813,0.079
2043.843,0.079
2043.873,0.079
2043.903,0.079
2043.934,0.079
2043.964,0.079
2043.994,0.079
2044.024,0.079
2044.054,0.079
2044.084,0.079
2044.114,0.079
2044.145,0.079
2044.175,0.079
2044.205,0.079
2044.235,0.079
2044.265,0.079
2044.295,0.079
2044.325,0.079
2044.355,0.079
2044.386,0.079
2044.416,0.079
2044.446,0.079
2044.476,0.079
2044.506,0.079
2044.536,0.079
2044.566,0.079
2044.597,0.079
2044.627,0.079
2044.657,0.079
2044.687,0.079
2044.717,0.079
2044.747,0.079
2044.777,0.079
2044.807,0.079
2044.838,0.079
2044.868,0.079
2044.898,0.079
2044.928,0.079
2044.958,0.079
2044.988,0.079
2045.018,0.079
2045.048,0.079
2045.079,0.079
2045.109,0.079
2045.139,0.079
2045.169,0.079
2045.199,0.079
2045.229,0.079
2045.259,0.079
2045.290,0.079
2045.320,0.079
2045.350,0.079
2045.380,0.079
2045.410,0.079
2045.440,0.080
2045.470,0.080
2045.500,0.081
2045.531,0.082
2045.561,0.084
2045.591,0.087
2045.621,0.091
2045.651,0.095
2045.681,0.099
2045.711,0.102
2045.742,0.103
2045.772,0.102
2045.802,0.100
2045.832,0.097
2045.862,0.094
2045.892,0.091
2045.922,0.089
2045.953,0.088
2045.983,0.089
2046.013,0.091
2046.043,0.096
2046.073,0.102
2046.103,0.110
2046.133,0.119
2046.163,0.128
2046.194,0.135
2046.224,0.140
2046.254,0.140
2046.284,0.136
2046.314,0.129
2046.344,0.119
2046.374,0.109
2046.404,0.099
2046.435,0.092
2046.465,0.086
2046.495,0.083
2046.525,0.081
2046.555,0.080
2046.585,0.080
2046.615,0.080
2046.646,0.079
2046.676,0.079
2046.706,0.079
2046.736,0.080
2046.766,0.080
2046.796,0.080
2046.826,0.080
2046.856,0.080
2046.887,0.080
2046.917,0.080
2046.947,0.080
2046.977,0.080
2047.007,0.080
2047.037,0.080
2047.067,0.080
2047.098,0.080
2047.128,0.080
2047.158,0.079
2047.188,0.080
2047.218,0.080
2047.248,0.080
2047.278,0.080
2047.308,0.080
2047.339,0.080
2047.369,0.080
2047.399,0.080
2047.429,0.079
2047.459,0.080
2047.489,0.080
2047.519,0.080
2047.549,0.079
2047.580,0.079
2047.610,0.079
2047.640,0.079
2047.670,0.079
2047.700,0.079
2047.730,0.079
2047.760,0.079
2047.791,0.079
2047.821,0.079
2047.851,0.079
2047.881,0.079
2047.911,0.080
2047.941,0.080
2047.971,0.080
2048.001,0.080
2048.031,0.080
2048.062,0.080
2048.092,0.080
2048.122,0.080
2048.152,0.080
2048.182,0.080
2048.212,0.080
2048.242,0.080
2048.273,0.080
2048.303,0.080
2048.333,0.080
2048.363,0.080
2048.393,0.080
2048.423,0.080
2048.453,0.080
2048.484,0.080
2048.514,0.080
2048.544,0.080
2048.574,0.080
2048.604,0.080
2048.634,0.080
2048.664,0.080
2048.695,0.080
2048.725,0.080
2048.755,0.080
2048.785,0.080
2048.815,0.080
2048.845,0.080
2048.875,0.080
2048.906,0.080
2048.936,0.080
2048.966,0.080
2048.996,0.080
2049.026,0.080
2049.056,0.080
2049.086,0.080
2049.116,0.080
2049.146,0.080
2049.177,0.080
2049.207,0.080
2049.237,0.080
2049.267,0.080
2049.297,0.080
2049.327,0.080
2049.357,0.080
2049.387,0.080
2049.418,0.080
2049.448,0.080
2049.478,0.080
2049.508,0.080
2049.538,0.081
2049.568,0.082
2049.598,0.084
2049.629,0.087
2049.659,0.090
2049.689,0.095
2049.719,0.099
2049.749,0.103
2049.779,0.106
2049.809,0.107
2049.840,0.106
2049.870,0.104
2049.900,0.101
2049.930,0.098
2049.960,0.094
2049.990,0.092
2050.020,0.090
2050.051,0.089
2050.081,0.088
2050.111,0.087
2050.141,0.085
2050.171,0.084
2050.201,0.083
2050.231,0.082
2050.261,0.081
2050.292,0.081
2050.322,0.080
2050.352,0.080
2050.382,0.080
2050.412,0.080
2050.442,0.080
2050.472,0.080
2050.502,0.081
2050.532,0.082
2050.563,0.084
2050.593,0.087
2050.623,0.093
2050.653,0.101
2050.683,0.111
2050.713,0.123
2050.743,0.135
2050.774,0.146
2050.804,0.152
2050.834,0.153
2050.864,0.149
2050.894,0.139
2050.924,0.127
2050.954,0.115
2050.985,0.103
2051.015,0.094
2051.045,0.088
2051.075,0.084
2051.105,0.082
2051.135,0.081
2051.165,0.081
2051.196,0.081
2051.226,0.080
2051.256,0.080
2051.286,0.080
2051.316,0.081
2051.346,0.081
2051.376,0.081
2051.406,0.081
2051.437,0.080
2051.467,0.080
2051.497,0.080
2051.527,0.081
2051.557,0.081
2051.587,0.081
2051.617,0.081
2051.647,0.081
2051.678,0.080
2051.708,0.080
2051.738,0.080
2051.768,0.080
2051.798,0.080
2051.828,0.080
2051.858,0.080
2051.888,0.080
2051.919,0.080
2051.949,0.080
2051.979,0.080
2052.009,0.080
2052.039,0.080
2052.069,0.080
2052.099,0.080
2052.130,0.080
2052.160,0.080
2052.190,0.080
2052.220,0.080
2052.250,0.081
2052.280,0.081
2052.310,0.081
2052.341,0.081
2052.371,0.081
2052.401,0.081
2052.431,0.081
2052.461,0.080
2052.491,0.080
2052.521,0.080
2052.552,0.080
2052.582,0.080
2052.612,0.080
2052.642,0.080
2052.672,0.080
2052.702,0.080
2052.732,0.080
2052.762,0.080
2052.792,0.080
2052.823,0.080
2052.853,0.080
2052.883,0.080
2052.913,0.080
2052.943,0.080
2052.973,0.080
2053.003,0.080
2053.034,0.080
2053.064,0.081
2053.094,0.080
2053.124,0.080
2053.154,0.080
2053.184,0.080
2053.214,0.080
2053.244,0.080
2053.275,0.080
2053.305,0.080
2053.335,0.080
2053.365,0.080
2053.395,0.080
2053.425,0.080
2053.455,0.080
2053.486,0.080
2053.516,0.080
2053.546,0.081
2053.576,0.082
2053.606,0.083
2053.636,0.086
2053.666,0.089
2053.697,0.094
2053.727,0.099
2053.757,0.104
2053.787,0.108
2053.817,0.111
2053.847,0.112
2053.877,0.111
2053.907,0.108
2053.938,0.104
2053.968,0.101
2053.998,0.097
2054.028,0.094
2054.058,0.091
2054.088,0.089
2054.118,0.087
2054.148,0.085
2054.179,0.083
2054.209,0.082
2054.239,0.081
2054.269,0.081
2054.299,0.081
2054.329,0.081
2054.359,0.081
2054.389,0.081
2054.420,0.081
2054.450,0.081
2054.480,0.081
2054.510,0.081
2054.540,0.081
2054.570,0.081
2054.600,0.081
2054.631,0.081
2054.661,0.081
2054.691,0.081
2054.721,0.081
2054.751,0.081
2054.781,0.081
2054.811,0.081
2054.842,0.081
2054.872,0.081
2054.902,0.081
2054.932,0.081
2054.962,0.081
2054.992,0.081
2055.022,0.081
2055.052,0.082
2055.083,0.083
2055.113,0.085
2055.143,0.090
2055.173,0.097
2055.203,0.107
2055.233,0.120
2055.263,0.135
2055.293,0.150
2055.324,0.162
2055.354,0.169
2055.384,0.170
2055.414,0.163
2055.444,0.152
2055.474,0.137
2055.504,0.122
2055.535,0.108
2055.565,0.098
2055.595,0.090
2055.625,0.086
2055.655,0.083
2055.685,0.082
2055.715,0.082
2055.745,0.081
2055.776,0.081
2055.806,0.081
2055.836,0.081
2055.866,0.081
2055.896,0.081
2055.926,0.081
2055.956,0.081
2055.987,0.081
2056.017,0.081
2056.047,0.081
2056.077,0.081
2056.107,0.081
2056.137,0.081
2056.167,0.081
2056.198,0.081
2056.228,0.081
2056.258,0.081
2056.288,0.081
2056.318,0.081
2056.348,0.081
2056.378,0.081
2056.408,0.081
2056.438,0.082
2056.469,0.082
2056.499,0.082
2056.529,0.082
2056.559,0.082
2056.589,0.082
2056.619,0.082
2056.649,0.082
2056.680,0.082
2056.710,0.082
2056.740,0.082
2056.770,0.082
2056.800,0.081
2056.830,0.081
2056.860,0.081
2056.890,0.081
2056.921,0.081
2056.951,0.081
2056.981,0.081
2057.011,0.081
2057.041,0.081
2057.071,0.081
2057.101,0.082
2057.132,0.082
2057.162,0.082
2057.192,0.081
2057.222,0.081
2057.252,0.081
2057.282,0.081
2057.312,0.081
2057.343,0.081
2057.373,0.081
2057.403,0.081
2057.433,0.081
2057.463,0.081
2057.493,0.081
2057.523,0.082
2057.553,0.082
2057.583,0.084
2057.614,0.086
2057.644,0.089
2057.674,0.093
2057.704,0.098
2057.734,0.104
2057.764,0.110
2057.794,0.114
2057.825,0.117
2057.855,0.117
2057.885,0.116
2057.915,0.112
2057.945,0.108
2057.975,0.103
2058.005,0.098
2058.036,0.094
2058.066,0.090
2058.096,0.087
2058.126,0.085
2058.156,0.084
2058.186,0.083
2058.216,0.082
2058.246,0.082
2058.277,0.081
2058.307,0.082
2058.337,0.082
2058.367,0.082
2058.397,0.082
2058.427,0.082
2058.457,0.082
2058.488,0.082
2058.518,0.082
2058.548,0.082
2058.578,0.082
2058.608,0.082
2058.638,0.082
2058.668,0.081
2058.698,0.081
2058.729,0.081
2058.759,0.081
2058.789,0.082
2058.819,0.082
2058.849,0.082
2058.879,0.082
2058.909,0.082
2058.939,0.081
2058.970,0.081
2059.000,0.081
2059.030,0.082
2059.060,0.082
2059.090,0.082
2059.120,0.081
2059.150,0.081
2059.181,0.081
2059.211,0.081
2059.241,0.081
2059.271,0.081
2059.301,0.081
2059.331,0.081
2059.361,0.081
2059.392,0.081
2059.422,0.081
2059.452,0.081
2059.482,0.081
2059.512,0.082
2059.542,0.082
2059.572,0.083
2059.602,0.085
2059.633,0.088
2059.663,0.094
2059.693,0.103
2059.723,0.116
2059.753,0.132
2059.783,0.150
2059.813,0.167
2059.844,0.181
2059.874,0.188
2059.904,0.187
2059.934,0.178
2059.964,0.163
2059.994,0.145
2060.024,0.127
2060.054,0.112
2060.084,0.100
2060.115,0.092
2060.145,0.087
2060.175,0.084
2060.205,0.083
2060.235,0.082
2060.265,0.082
2060.295,0.081
2060.326,0.081
2060.356,0.081
2060.386,0.081
2060.416,0.081
2060.446,0.081
2060.476,0.081
2060.506,0.081
2060.537,0.081
2060.567,0.081
2060.597,0.081
2060.627,0.081
2060.657,0.081
2060.687,0.081
2060.717,0.082
2060.747,0.082
2060.778,0.082
2060.808,0.081
2060.838,0.081
2060.868,0.081
2060.898,0.081
2060.928,0.081
2060.958,0.081
2060.989,0.081
2061.019,0.080
2061.049,0.080
2061.079,0.080
2061.109,0.080
2061.139,0.080
2061.169,0.080
2061.199,0.080
2061.229,0.080
2061.260,0.080
2061.290,0.080
2061.320,0.080
2061.350,0.080
2061.380,0.080
2061.410,0.080
2061.440,0.080
2061.471,0.080
2061.501,0.080
2061.531,0.081
2061.561,0.083
2061.591,0.086
2061.621,0.090
2061.651,0.095
2061.682,0.101
2061.712,0.108
2061.742,0.114
2061.772,0.118
2061.802,0.120
2061.832,0.120
2061.862,0.117
2061.893,0.112
2061.923,0.106
2061.953,0.100
2061.983,0.094
2062.013,0.089
2062.043,0.086
2062.073,0.084
2062.103,0.082
2062.134,0.081
2062.164,0.081
2062.194,0.080
2062.224,0.080
2062.254,0.080
2062.284,0.080
2062.314,0.080
2062.344,0.080
2062.375,0.080
2062.405,0.080
2062.435,0.080
2062.465,0.080
2062.495,0.080
2062.525,0.080
2062.555,0.080
2062.585,0.080
2062.616,0.081
2062.646,0.081
2062.676,0.080
2062.706,0.080
2062.736,0.080
2062.766,0.081
2062.796,0.081
2062.827,0.081
2062.857,0.081
2062.887,0.081
2062.917,0.081
2062.947,0.081
2062.977,0.080
2063.007,0.080
2063.038,0.081
2063.068,0.081
2063.098,0.081
2063.128,0.081
2063.158,0.080
2063.188,0.080
2063.218,0.080
2063.248,0.080
2063.279,0.081
2063.309,0.081
2063.339,0.081
2063.369,0.081
2063.399,0.081
2063.429,0.081
2063.459,0.080
2063.490,0.081
2063.520,0.081
2063.550,0.081
2063.580,0.081
2063.610,0.081
2063.640,0.080
2063.670,0.080
2063.700,0.080
2063.730,0.081
2063.761,0.081
2063.791,0.081
2063.821,0.081
2063.851,0.081
2063.881,0.081
2063.911,0.081
2063.941,0.081
2063.972,0.081
2064.002,0.082
2064.032,0.083
2064.062,0.084
2064.092,0.087
2064.122,0.091
2064.152,0.099
2064.183,0.111
2064.213,0.127
2064.243,0.146
2064.273,0.167
2064.303,0.187
2064.333,0.201
2064.363,0.208
2064.394,0.204
2064.424,0.191
2064.454,0.173
2064.484,0.152
2064.514,0.131
2064.544,0.114
2064.574,0.101
2064.604,0.092
2064.635,0.087
2064.665,0.084
2064.695,0.082
2064.725,0.082
2064.755,0.081
2064.785,0.081
2064.815,0.081
2064.845,0.081
2064.875,0.081
2064.906,0.081
2064.936,0.081
2064.966,0.081
2064.996,0.081
2065.026,0.081
2065.056,0.081
2065.086,0.081
2065.117,0.081
2065.147,0.081
2065.177,0.081
2065.207,0.080
2065.237,0.080
2065.267,0.080
2065.297,0.080
2065.328,0.080
2065.358,0.080
2065.388,0.080
2065.418,0.081
2065.448,0.081
2065.478,0.082
2065.508,0.084
2065.539,0.088
2065.569,0.093
2065.599,0.099
2065.629,0.107
2065.659,0.114
2065.689,0.119
2065.719,0.123
2065.750,0.123
2065.780,0.120
2065.810,0.114
2065.840,0.107
2065.870,0.100
2065.900,0.093
2065.930,0.088
2065.960,0.084
2065.990,0.082
2066.021,0.081
2066.051,0.081
2066.081,0.080
2066.111,0.080
2066.141,0.080
2066.171,0.080
2066.201,0.080
2066.231,0.080
2066.262,0.080
2066.292,0.080
2066.322,0.080
2066.352,0.080
2066.382,0.080
2066.412,0.080
2066.442,0.080
2066.473,0.080
2066.503,0.080
2066.533,0.080
2066.563,0.080
2066.593,0.080
2066.623,0.080
2066.653,0.080
2066.684,0.080
2066.714,0.080
2066.744,0.080
2066.774,0.080
2066.804,0.080
2066.834,0.080
2066.864,0.080
2066.895,0.080
2066.925,0.080
2066.955,0.080
2066.985,0.080
2067.015,0.080
2067.045,0.081
2067.075,0.081
2067.105,0.081
2067.135,0.081
2067.166,0.081
2067.196,0.081
2067.226,0.082
2067.256,0.082
2067.286,0.082
2067.316,0.082
2067.346,0.082
2067.376,0.082
2067.407,0.082
2067.437,0.082
2067.467,0.082
2067.497,0.082
2067.527,0.082
2067.557,0.082
2067.587,0.082
2067.618,0.082
2067.648,0.082
2067.678,0.082
2067.708,0.081
2067.738,0.081
2067.768,0.081
2067.798,0.081
2067.829,0.081
2067.859,0.081
2067.889,0.081
2067.919,0.081
2067.949,0.081
2067.979,0.081
2068.009,0.081
2068.040,0.081
2068.070,0.081
2068.100,0.080
2068.130,0.080
2068.160,0.080
2068.190,0.080
2068.220,0.080
2068.250,0.080
2068.281,0.080
2068.311,0.080
2068.341,0.080
2068.371,0.080
2068.401,0.080
2068.431,0.081
2068.461,0.081
2068.491,0.083
2068.521,0.085
2068.552,0.089
2068.582,0.096
2068.612,0.107
2068.642,0.122
2068.672,0.142
2068.702,0.166
2068.732,0.190
2068.763,0.211
2068.793,0.226
2068.823,0.230
2068.853,0.222
2068.883,0.204
2068.913,0.181
2068.943,0.156
2068.974,0.134
2069.004,0.116
2069.034,0.103
2069.064,0.094
2069.094,0.089
2069.124,0.086
2069.154,0.084
2069.185,0.083
2069.215,0.082
2069.245,0.081
2069.275,0.081
2069.305,0.081
2069.335,0.081
2069.365,0.082
2069.396,0.084
2069.426,0.086
2069.456,0.091
2069.486,0.097
2069.516,0.104
2069.546,0.111
2069.576,0.117
2069.606,0.121
2069.636,0.121
2069.667,0.119
2069.697,0.113
2069.727,0.107
2069.757,0.099
2069.787,0.093
2069.817,0.088
2069.847,0.084
2069.877,0.081
2069.908,0.080
2069.938,0.079
2069.968,0.079
2069.998,0.079
2070.028,0.079
2070.058,0.079
2070.088,0.079
2070.119,0.079
2070.149,0.079
2070.179,0.079
2070.209,0.079
2070.239,0.079
2070.269,0.079
2070.299,0.079
2070.330,0.080
2070.360,0.080
2070.390,0.079
2070.420,0.079
2070.450,0.079
2070.480,0.079
2070.510,0.080
2070.541,0.080
2070.571,0.080
2070.601,0.080
2070.631,0.080
2070.661,0.079
2070.691,0.079
2070.721,0.079
2070.751,0.079
2070.781,0.079
2070.812,0.079
2070.842,0.079
2070.872,0.079
2070.902,0.079
2070.932,0.079
2070.962,0.079
2070.992,0.080
2071.022,0.080
2071.053,0.080
2071.083,0.079
2071.113,0.079
2071.143,0.079
2071.173,0.079
2071.203,0.079
2071.233,0.079
2071.264,0.079
2071.294,0.079
2071.324,0.079
2071.354,0.079
2071.384,0.079
2071.414,0.079
2071.444,0.079
2071.475,0.080
2071.505,0.080
2071.535,0.080
2071.565,0.079
2071.595,0.079
2071.625,0.079
2071.655,0.079
2071.686,0.079
2071.716,0.080
2071.746,0.080
2071.776,0.080
2071.806,0.079
2071.836,0.079
2071.866,0.079
2071.896,0.079
2071.927,0.079
2071.957,0.080
2071.987,0.080
2072.017,0.080
2072.047,0.080
2072.077,0.080
2072.107,0.080
2072.137,0.080
2072.167,0.080
2072.198,0.080
2072.228,0.080
2072.258,0.080
2072.288,0.080
2072.318,0.080
2072.348,0.080
2072.378,0.080
2072.409,0.080
2072.439,0.080
2072.469,0.080
2072.499,0.080
2072.529,0.080
2072.559,0.080
2072.589,0.080
2072.620,0.080
2072.650,0.080
2072.680,0.080
2072.710,0.080
2072.740,0.081
2072.770,0.081
2072.800,0.081
2072.831,0.081
2072.861,0.082
2072.891,0.083
2072.921,0.085
2072.951,0.089
2072.981,0.095
2073.011,0.104
2073.042,0.119
2073.072,0.138
2073.102,0.163
2073.132,0.191
2073.162,0.219
2073.192,0.242
2073.222,0.255
2073.252,0.257
2073.282,0.246
2073.313,0.228
2073.343,0.207
2073.373,0.186
2073.403,0.169
2073.433,0.155
2073.463,0.145
2073.493,0.137
2073.523,0.129
2073.554,0.121
2073.584,0.112
2073.614,0.104
2073.644,0.096
2073.674,0.091
2073.704,0.086
2073.734,0.084
2073.765,0.082
2073.795,0.081
2073.825,0.081
2073.855,0.080
2073.885,0.080
2073.915,0.080
2073.945,0.080
2073.976,0.080
2074.006,0.080
2074.036,0.080
2074.066,0.080
2074.096,0.080
2074.126,0.080
2074.156,0.080
2074.187,0.080
2074.217,0.080
2074.247,0.080
2074.277,0.080
2074.307,0.080
2074.337,0.079
2074.367,0.079
2074.397,0.079
2074.427,0.079
2074.458,0.079
2074.488,0.079
2074.518,0.079
2074.548,0.079
2074.578,0.079
2074.608,0.079
2074.638,0.079
2074.668,0.079
2074.699,0.079
2074.729,0.079
2074.759,0.079
2074.789,0.079
2074.819,0.079
2074.849,0.079
2074.879,0.079
2074.910,0.079
2074.940,0.079
2074.970,0.079
2075.000,0.079
2075.030,0.079
2075.060,0.079
2075.090,0.079
2075.121,0.079
2075.151,0.079
2075.181,0.080
2075.211,0.080
2075.241,0.080
2075.271,0.080
2075.301,0.079
2075.332,0.079
2075.362,0.079
2075.392,0.080
2075.422,0.080
2075.452,0.080
2075.482,0.079
2075.512,0.079
2075.542,0.079
2075.573,0.079
2075.603,0.079
2075.633,0.079
2075.663,0.079
2075.693,0.079
2075.723,0.079
2075.753,0.079
2075.783,0.079
2075.813,0.079
2075.844,0.079
2075.874,0.079
2075.904,0.079
2075.934,0.079
2075.964,0.079
2075.994,0.079
2076.024,0.079
2076.055,0.079
2076.085,0.079
2076.115,0.080
2076.145,0.080
2076.175,0.079
2076.205,0.079
2076.235,0.079
2076.266,0.079
2076.296,0.079
2076.326,0.080
2076.356,0.080
2076.386,0.080
2076.416,0.080
2076.446,0.080
2076.477,0.080
2076.507,0.080
2076.537,0.080
2076.567,0.080
2076.597,0.080
2076.627,0.080
2076.657,0.080
2076.688,0.080
2076.718,0.080
2076.748,0.079
2076.778,0.080
2076.808,0.080
2076.838,0.080
2076.868,0.080
2076.898,0.080
2076.928,0.080
2076.958,0.080
2076.989,0.080
2077.019,0.081
2077.049,0.083
2077.079,0.085
2077.109,0.088
2077.139,0.093
2077.169,0.098
2077.200,0.105
2077.230,0.113
2077.260,0.120
2077.290,0.126
2077.320,0.130
2077.350,0.135
2077.380,0.140
2077.411,0.148
2077.441,0.161
2077.471,0.179
2077.501,0.204
2077.531,0.231
2077.561,0.257
2077.591,0.275
2077.622,0.281
2077.652,0.271
2077.682,0.249
2077.712,0.218
2077.742,0.186
2077.772,0.156
2077.802,0.132
2077.833,0.113
2077.863,0.101
2077.893,0.093
2077.923,0.088
2077.953,0.085
2077.983,0.084
2078.013,0.083
2078.043,0.082
2078.073,0.082
2078.104,0.082
2078.134,0.081
2078.164,0.081
2078.194,0.081
2078.224,0.081
2078.254,0.080
2078.284,0.080
2078.314,0.080
2078.345,0.080
2078.375,0.080
2078.405,0.080
2078.435,0.080
2078.465,0.080
2078.495,0.080
2078.525,0.080
2078.556,0.080
2078.586,0.080
2078.616,0.080
2078.646,0.080
2078.676,0.080
2078.706,0.079
2078.736,0.079
2078.767,0.079
2078.797,0.079
2078.827,0.079
2078.857,0.079
2078.887,0.079
2078.917,0.079
2078.947,0.079
2078.978,0.079
2079.008,0.079
2079.038,0.079
2079.068,0.080
2079.098,0.080
2079.128,0.079
2079.158,0.079
2079.188,0.079
2079.219,0.079
2079.249,0.079
2079.279,0.079
2079.309,0.079
2079.339,0.079
2079.369,0.079
2079.399,0.079
2079.429,0.079
2079.459,0.079
2079.490,0.079
2079.520,0.080
2079.550,0.080
2079.580,0.080
2079.610,0.080
2079.640,0.080
2079.670,0.079
2079.701,0.079
2079.731,0.079
2079.761,0.079
2079.791,0.079
2079.821,0.079
2079.851,0.079
2079.881,0.079
2079.912,0.079
2079.942,0.079
2079.972,0.079
2080.002,0.080
2080.032,0.080
2080.062,0.080
2080.092,0.080
2080.123,0.080
2080.153,0.080
2080.183,0.080
2080.213,0.080
2080.243,0.080
2080.273,0.080
2080.303,0.080
2080.333,0.080
2080.364,0.080
2080.394,0.080
2080.424,0.080
2080.454,0.080
2080.484,0.080
2080.514,0.080
2080.544,0.080
2080.574,0.080
2080.604,0.080
2080.635,0.080
2080.665,0.080
2080.695,0.080
2080.725,0.080
2080.755,0.080
2080.785,0.081
2080.815,0.081
2080.846,0.082
2080.876,0.084
2080.906,0.086
2080.936,0.090
2080.966,0.094
2080.996,0.099
2081.026,0.104
2081.057,0.109
2081.087,0.113
2081.117,0.115
2081.147,0.114
2081.177,0.112
2081.207,0.108
2081.237,0.102
2081.268,0.097
2081.298,0.092
2081.328,0.088
2081.358,0.086
2081.388,0.084
2081.418,0.083
2081.448,0.083
2081.479,0.082
2081.509,0.082
2081.539,0.083
2081.569,0.083
2081.599,0.084
2081.629,0.086
2081.659,0.089
2081.689,0.094
2081.719,0.102
2081.750,0.115
2081.780,0.134
2081.810,0.159
2081.840,0.191
2081.870,0.227
2081.900,0.262
2081.930,0.291
2081.960,0.306
2081.991,0.304
2082.021,0.284
2082.051,0.253
2082.081,0.217
2082.111,0.182
2082.141,0.152
2082.171,0.128
2082.202,0.111
2082.232,0.100
2082.262,0.093
2082.292,0.089
2082.322,0.086
2082.352,0.085
2082.382,0.084
2082.413,0.083
2082.443,0.082
2082.473,0.082
2082.503,0.082
2082.533,0.081
2082.563,0.081
2082.593,0.081
2082.624,0.081
2082.654,0.080
2082.684,0.080
2082.714,0.080
2082.744,0.080
2082.774,0.080
2082.804,0.080
2082.834,0.080
2082.865,0.080
2082.895,0.080
2082.925,0.080
2082.955,0.080
2082.985,0.080
2083.015,0.080
2083.045,0.080
2083.075,0.080
2083.105,0.080
2083.136,0.080
2083.166,0.080
2083.196,0.080
2083.226,0.080
2083.256,0.080
2083.286,0.079
2083.316,0.079
2083.347,0.079
2083.377,0.079
2083.407,0.080
2083.437,0.080
2083.467,0.080
2083.497,0.080
2083.527,0.080
2083.558,0.080
2083.588,0.080
2083.618,0.080
2083.648,0.080
2083.678,0.080
2083.708,0.080
2083.738,0.080
2083.769,0.080
2083.799,0.080
2083.829,0.080
2083.859,0.080
2083.889,0.080
2083.919,0.080
2083.949,0.080
2083.979,0.080
2084.010,0.080
2084.040,0.080
2084.070,0.080
2084.100,0.080
2084.130,0.080
2084.160,0.080
2084.190,0.080
2084.220,0.080
2084.250,0.080
2084.281,0.079
2084.311,0.079
2084.341,0.080
2084.371,0.080
2084.401,0.080
2084.431,0.080
2084.461,0.080
2084.492,0.080
2084.522,0.080
2084.552,0.081
2084.582,0.082
2084.612,0.083
2084.642,0.084
2084.672,0.086
2084.703,0.088
2084.733,0.091
2084.763,0.094
2084.793,0.098
2084.823,0.102
2084.853,0.105
2084.883,0.107
2084.914,0.107
2084.944,0.106
2084.974,0.103
2085.004,0.098
2085.034,0.094
2085.064,0.089
2085.094,0.086
2085.125,0.083
2085.155,0.082
2085.185,0.081
2085.215,0.082
2085.245,0.082
2085.275,0.082
2085.305,0.082
2085.335,0.083
2085.365,0.083
2085.396,0.082
2085.426,0.082
2085.456,0.082
2085.486,0.082
2085.516,0.081
2085.546,0.081
2085.576,0.081
2085.606,0.081
2085.637,0.081
2085.667,0.081
2085.697,0.081
2085.727,0.082
2085.757,0.082
2085.787,0.082
2085.817,0.083
2085.848,0.083
2085.878,0.084
2085.908,0.086
2085.938,0.087
2085.968,0.090
2085.998,0.095
2086.028,0.103
2086.059,0.116
2086.089,0.134
2086.119,0.160
2086.149,0.193
2086.179,0.231
2086.209,0.271
2086.239,0.306
2086.270,0.329
2086.300,0.334
2086.330,0.319
2086.360,0.288
2086.390,0.249
2086.420,0.209
2086.450,0.173
2086.480,0.144
2086.510,0.123
2086.541,0.108
2086.571,0.098
2086.601,0.092
2086.631,0.089
2086.661,0.087
2086.691,0.085
2086.721,0.084
2086.751,0.083
2086.782,0.083
2086.812,0.083
2086.842,0.082
2086.872,0.082
2086.902,0.082
2086.932,0.081
2086.962,0.081
2086.993,0.081
2087.023,0.081
2087.053,0.081
2087.083,0.081
2087.113,0.080
2087.143,0.080
2087.173,0.080
2087.204,0.080
2087.234,0.080
2087.264,0.080
2087.294,0.080
2087.324,0.080
2087.354,0.080
2087.384,0.080
2087.415,0.080
2087.445,0.080
2087.475,0.080
2087.505,0.080
2087.535,0.080
2087.565,0.080
2087.595,0.080
2087.625,0.080
2087.656,0.080
2087.686,0.080
2087.716,0.080
2087.746,0.080
2087.776,0.080
2087.806,0.080
2087.836,0.080
2087.866,0.080
2087.897,0.080
2087.927,0.080
2087.957,0.080
2087.987,0.080
2088.017,0.080
2088.047,0.080
2088.077,0.080
2088.107,0.080
2088.138,0.080
2088.168,0.080
2088.198,0.080
2088.228,0.080
2088.258,0.080
2088.288,0.081
2088.318,0.081
2088.349,0.082
2088.379,0.082
2088.409,0.083
2088.439,0.084
2088.469,0.086
2088.499,0.089
2088.529,0.092
2088.560,0.095
2088.590,0.098
2088.620,0.100
2088.650,0.100
2088.680,0.099
2088.710,0.097
2088.740,0.095
2088.771,0.091
2088.801,0.088
2088.831,0.085
2088.861,0.083
2088.891,0.081
2088.921,0.080
2088.951,0.080
2088.981,0.080
2089.011,0.080
2089.042,0.080
2089.072,0.080
2089.102,0.080
2089.132,0.080
2089.162,0.080
2089.192,0.081
2089.222,0.081
2089.253,0.082
2089.283,0.082
2089.313,0.082
2089.343,0.082
2089.373,0.082
2089.403,0.082
2089.433,0.081
2089.463,0.081
2089.494,0.081
2089.524,0.081
2089.554,0.081
2089.584,0.081
2089.614,0.081
2089.644,0.081
2089.674,0.081
2089.705,0.081
2089.735,0.081
2089.765,0.081
2089.795,0.081
2089.825,0.081
2089.855,0.081
2089.885,0.081
2089.916,0.081
2089.946,0.081
2089.976,0.081
2090.006,0.082
2090.036,0.082
2090.066,0.082
2090.096,0.083
2090.126,0.083
2090.156,0.084
2090.187,0.086
2090.217,0.088
2090.247,0.091
2090.277,0.096
2090.307,0.105
2090.337,0.117
2090.367,0.136
2090.398,0.162
2090.428,0.196
2090.458,0.237
2090.488,0.281
2090.518,0.322
2090.548,0.352
2090.578,0.363
2090.608,0.351
2090.639,0.321
2090.669,0.279
2090.699,0.235
2090.729,0.194
2090.759,0.161
2090.789,0.135
2090.819,0.116
2090.850,0.104
2090.880,0.097
2090.910,0.092
2090.940,0.089
2090.970,0.087
2091.000,0.085
2091.030,0.084
2091.061,0.084
2091.091,0.083
2091.121,0.083
2091.151,0.083
2091.181,0.082
2091.211,0.082
2091.241,0.081
2091.271,0.081
2091.302,0.081
2091.332,0.081
2091.362,0.081
2091.392,0.081
2091.422,0.081
2091.452,0.080
2091.482,0.080
2091.512,0.080
2091.543,0.080
2091.573,0.081
2091.603,0.081
2091.633,0.081
2091.663,0.081
2091.693,0.081
2091.723,0.080
2091.754,0.080
2091.784,0.080
2091.814,0.080
2091.844,0.080
2091.874,0.080
2091.904,0.080
2091.934,0.080
2091.964,0.080
2091.995,0.080
2092.025,0.080
2092.055,0.080
2092.085,0.080
2092.115,0.081
2092.145,0.081
2092.175,0.082
2092.206,0.083
2092.236,0.085
2092.266,0.087
2092.296,0.089
2092.326,0.091
2092.356,0.091
2092.386,0.091
2092.417,0.090
2092.447,0.088
2092.477,0.086
2092.507,0.084
2092.537,0.083
2092.567,0.082
2092.597,0.081
2092.627,0.080
2092.657,0.080
2092.688,0.080
2092.718,0.080
2092.748,0.080
2092.778,0.080
2092.808,0.080
2092.838,0.080
2092.868,0.080
2092.899,0.080
2092.929,0.080
2092.959,0.080
2092.989,0.080
2093.019,0.080
2093.049,0.080
2093.079,0.080
2093.109,0.081
2093.140,0.081
2093.170,0.081
2093.200,0.081
2093.230,0.082
2093.260,0.082
2093.290,0.082
2093.320,0.082
2093.351,0.082
2093.381,0.082
2093.411,0.081
2093.441,0.081
2093.471,0.081
2093.501,0.080
2093.531,0.081
2093.562,0.081
2093.592,0.080
2093.622,0.080
2093.652,0.080
2093.682,0.080
2093.712,0.081
2093.742,0.081
2093.772,0.081
2093.802,0.081
2093.833,0.081
2093.863,0.081
2093.893,0.081
2093.923,0.081
2093.953,0.081
2093.983,0.081
2094.013,0.081
2094.044,0.081
2094.074,0.081
2094.104,0.081
2094.134,0.081
2094.164,0.081
2094.194,0.082
2094.224,0.082
2094.255,0.083
2094.285,0.083
2094.315,0.084
2094.345,0.084
2094.375,0.085
2094.405,0.086
2094.435,0.088
2094.465,0.090
2094.496,0.094
2094.526,0.099
2094.556,0.108
2094.586,0.121
2094.616,0.140
2094.646,0.167
2094.676,0.202
2094.707,0.245
2094.737,0.292
2094.767,0.338
2094.797,0.374
2094.827,0.390
2094.857,0.381
2094.887,0.351
2094.917,0.307
2094.948,0.259
2094.978,0.214
2095.008,0.176
2095.038,0.147
2095.068,0.125
2095.098,0.111
2095.128,0.101
2095.158,0.095
2095.189,0.092
2095.219,0.089
2095.249,0.087
2095.279,0.086
2095.309,0.085
2095.339,0.084
2095.369,0.084
2095.400,0.083
2095.430,0.083
2095.460,0.082
2095.490,0.082
2095.520,0.082
2095.550,0.082
2095.580,0.083
2095.611,0.083
2095.641,0.083
2095.671,0.083
2095.701,0.083
2095.731,0.083
2095.761,0.083
2095.791,0.083
2095.821,0.082
2095.852,0.082
2095.882,0.081
2095.912,0.081
2095.942,0.081
2095.972,0.080
2096.002,0.080
2096.032,0.080
2096.063,0.080
2096.093,0.080
2096.123,0.080
2096.153,0.080
2096.183,0.080
2096.213,0.080
2096.243,0.080
2096.273,0.080
2096.303,0.080
2096.334,0.080
2096.364,0.080
2096.394,0.080
2096.424,0.080
2096.454,0.080
2096.484,0.080
2096.514,0.080
2096.545,0.080
2096.575,0.080
2096.605,0.080
2096.635,0.080
2096.665,0.080
2096.695,0.080
2096.725,0.080
2096.756,0.080
2096.786,0.080
2096.816,0.080
2096.846,0.080
2096.876,0.080
2096.906,0.080
2096.936,0.080
2096.966,0.080
2096.997,0.080
2097.027,0.081
2097.057,0.081
2097.087,0.081
2097.117,0.081
2097.147,0.082
2097.177,0.082
2097.208,0.082
2097.238,0.082
2097.268,0.082
2097.298,0.081
2097.328,0.081
2097.358,0.081
2097.388,0.081
2097.418,0.080
2097.448,0.080
2097.479,0.080
2097.509,0.080
2097.539,0.080
2097.569,0.080
2097.599,0.080
2097.629,0.080
2097.659,0.080
2097.690,0.080
2097.720,0.080
2097.750,0.080
2097.780,0.080
2097.810,0.080
2097.840,0.080
2097.870,0.081
2097.901,0.081
2097.931,0.081
2097.961,0.081
2097.991,0.081
2098.021,0.081
2098.051,0.081
2098.081,0.081
2098.112,0.081
2098.142,0.081
2098.172,0.081
2098.202,0.081
2098.232,0.081
2098.262,0.082
2098.292,0.082
2098.322,0.082
2098.353,0.082
2098.383,0.082
2098.413,0.083
2098.443,0.083
2098.473,0.083
2098.503,0.084
2098.533,0.084
2098.563,0.085
2098.594,0.086
2098.624,0.087
2098.654,0.089
2098.684,0.092
2098.714,0.096
2098.744,0.102
2098.774,0.111
2098.804,0.125
2098.835,0.146
2098.865,0.174
2098.895,0.211
2098.925,0.256
2098.955,0.307
2098.985,0.356
2099.015,0.396
2099.046,0.415
2099.076,0.408
2099.106,0.376
2099.136,0.330
2099.166,0.279
2099.196,0.232
2099.226,0.191
2099.257,0.160
2099.287,0.137
2099.317,0.120
2099.347,0.109
2099.377,0.102
2099.407,0.097
2099.437,0.094
2099.467,0.092
2099.498,0.091
2099.528,0.091
2099.558,0.092
2099.588,0.093
2099.618,0.095
2099.648,0.095
2099.678,0.095
2099.708,0.094
2099.739,0.093
2099.769,0.091
2099.799,0.089
2099.829,0.087
2099.859,0.085
2099.889,0.083
2099.919,0.082
2099.949,0.082
2099.980,0.081
2100.010,0.081
2100.040,0.081
2100.070,0.081
2100.100,0.081
2100.130,0.081
2100.160,0.081
2100.191,0.080
2100.221,0.080
2100.251,0.081
2100.281,0.081
2100.311,0.081
2100.341,0.081
2100.371,0.080
2100.402,0.080
2100.432,0.080
2100.462,0.080
2100.492,0.080
2100.522,0.080
2100.552,0.080
2100.582,0.080
2100.613,0.080
2100.643,0.080
2100.673,0.080
2100.703,0.080
2100.733,0.080
2100.763,0.081
2100.793,0.081
2100.823,0.081
2100.854,0.081
2100.884,0.081
2100.914,0.081
2100.944,0.081
2100.974,0.081
2101.004,0.082
2101.034,0.082
2101.064,0.082
2101.094,0.082
2101.125,0.082
2101.155,0.081
2101.185,0.081
2101.215,0.081
2101.245,0.081
2101.275,0.081
2101.305,0.081
2101.336,0.080
2101.366,0.080
2101.396,0.080
2101.426,0.080
2101.456,0.080
2101.486,0.080
2101.516,0.080
2101.547,0.080
2101.577,0.080
2101.607,0.080
2101.637,0.080
2101.667,0.080
2101.697,0.080
2101.727,0.081
2101.758,0.081
2101.788,0.081
2101.818,0.081
2101.848,0.080
2101.878,0.080
2101.908,0.081
2101.938,0.081
2101.969,0.081
2101.999,0.081
2102.029,0.081
2102.059,0.081
2102.089,0.081
2102.119,0.081
2102.149,0.081
2102.179,0.081
2102.209,0.081
2102.240,0.081
2102.270,0.081
2102.300,0.081
2102.330,0.081
2102.360,0.081
2102.390,0.081
2102.420,0.082
2102.450,0.082
2102.481,0.082
2102.511,0.083
2102.541,0.083
2102.571,0.083
2102.601,0.083
2102.631,0.084
2102.661,0.085
2102.692,0.086
2102.722,0.088
2102.752,0.090
2102.782,0.092
2102.812,0.094
2102.842,0.097
2102.872,0.100
2102.903,0.105
2102.933,0.111
2102.963,0.121
2102.993,0.135
2103.023,0.156
2103.053,0.186
2103.083,0.225
2103.114,0.274
2103.144,0.328
2103.174,0.383
2103.204,0.426
2103.234,0.448
2103.264,0.439
2103.294,0.403
2103.324,0.352
2103.354,0.295
2103.385,0.243
2103.415,0.199
2103.445,0.164
2103.475,0.138
2103.505,0.120
2103.535,0.108
2103.565,0.100
2103.595,0.095
2103.626,0.092
2103.656,0.090
2103.686,0.089
2103.716,0.087
2103.746,0.087
2103.776,0.086
2103.806,0.085
2103.837,0.084
2103.867,0.084
2103.897,0.083
2103.927,0.083
2103.957,0.083
2103.987,0.083
2104.017,0.082
2104.048,0.082
2104.078,0.082
2104.108,0.082
2104.138,0.082
2104.168,0.082
2104.198,0.081
2104.228,0.081
2104.259,0.081
2104.289,0.081
2104.319,0.081
2104.349,0.081
2104.379,0.081
2104.409,0.081
2104.439,0.081
2104.469,0.081
2104.500,0.080
2104.530,0.080
2104.560,0.080
2104.590,0.080
2104.620,0.080
2104.650,0.080
2104.680,0.080
2104.710,0.081
2104.740,0.081
2104.771,0.081
2104.801,0.081
2104.831,0.081
2104.861,0.081
2104.891,0.082
2104.921,0.082
2104.951,0.082
2104.982,0.081
2105.012,0.081
2105.042,0.081
2105.072,0.081
2105.102,0.081
2105.132,0.081
2105.162,0.081
2105.193,0.080
2105.223,0.080
2105.253,0.080
2105.283,0.080
2105.313,0.080
2105.343,0.080
2105.373,0.081
2105.404,0.081
2105.434,0.080
2105.464,0.080
2105.494,0.080
2105.524,0.080
2105.554,0.080
2105.584,0.080
2105.615,0.080
2105.645,0.081
2105.675,0.081
2105.705,0.080
2105.735,0.080
2105.765,0.080
2105.795,0.080
2105.825,0.081
2105.855,0.081
2105.885,0.081
2105.916,0.081
2105.946,0.081
2105.976,0.081
2106.006,0.081
2106.036,0.081
2106.066,0.081
2106.096,0.081
2106.127,0.082
2106.157,0.082
2106.187,0.082
2106.217,0.083
2106.247,0.084
2106.277,0.085
2106.307,0.087
2106.338,0.088
2106.368,0.089
2106.398,0.090
2106.428,0.090
2106.458,0.089
2106.488,0.088
2106.518,0.087
2106.549,0.086
2106.579,0.085
2106.609,0.085
2106.639,0.086
2106.669,0.088
2106.699,0.091
2106.729,0.095
2106.760,0.100
2106.790,0.105
2106.820,0.110
2106.850,0.113
2106.880,0.114
2106.910,0.113
2106.940,0.111
2106.970,0.108
2107.000,0.105
2107.031,0.105
2107.061,0.106
2107.091,0.112
2107.121,0.122
2107.151,0.139
2107.181,0.163
2107.211,0.196
2107.241,0.239
2107.272,0.291
2107.302,0.347
2107.332,0.401
2107.362,0.441
2107.392,0.457
2107.422,0.442
2107.452,0.401
2107.483,0.347
2107.513,0.290
2107.543,0.238
2107.573,0.195
2107.603,0.162
2107.633,0.137
2107.663,0.120
2107.694,0.109
2107.724,0.101
2107.754,0.096
2107.784,0.093
2107.814,0.091
2107.844,0.089
2107.874,0.088
2107.905,0.087
2107.935,0.086
2107.965,0.085
2107.995,0.085
2108.025,0.084
2108.055,0.084
2108.085,0.084
2108.115,0.083
2108.146,0.083
2108.176,0.083
2108.206,0.082
2108.236,0.082
2108.266,0.082
2108.296,0.082
2108.326,0.081
2108.356,0.081
2108.386,0.081
2108.417,0.081
2108.447,0.081
2108.477,0.081
2108.507,0.081
2108.537,0.081
2108.567,0.081
2108.597,0.081
2108.628,0.081
2108.658,0.081
2108.688,0.081
2108.718,0.081
2108.748,0.081
2108.778,0.081
2108.808,0.081
2108.839,0.081
2108.869,0.081
2108.899,0.081
2108.929,0.081
2108.959,0.081
2108.989,0.080
2109.019,0.080
2109.050,0.080
2109.080,0.080
2109.110,0.080
2109.140,0.080
2109.170,0.080
2109.200,0.080
2109.230,0.080
2109.260,0.080
2109.291,0.080
2109.321,0.080
2109.351,0.080
2109.381,0.080
2109.411,0.080
2109.441,0.080
2109.471,0.080
2109.501,0.080
2109.531,0.080
2109.562,0.080
2109.592,0.080
2109.622,0.081
2109.652,0.081
2109.682,0.081
2109.712,0.082
2109.742,0.083
2109.773,0.084
2109.803,0.086
2109.833,0.088
2109.863,0.089
2109.893,0.090
2109.923,0.090
2109.953,0.089
2109.984,0.088
2110.014,0.087
2110.044,0.085
2110.074,0.084
2110.104,0.083
2110.134,0.083
2110.164,0.083
2110.195,0.085
2110.225,0.088
2110.255,0.092
2110.285,0.098
2110.315,0.103
2110.345,0.108
2110.375,0.112
2110.406,0.114
2110.436,0.113
2110.466,0.110
2110.496,0.106
2110.526,0.100
2110.556,0.095
2110.586,0.090
2110.616,0.086
2110.646,0.084
2110.677,0.083
2110.707,0.083
2110.737,0.083
2110.767,0.083
2110.797,0.083
2110.827,0.083
2110.857,0.084
2110.887,0.084
2110.918,0.085
2110.948,0.086
2110.978,0.086
2111.008,0.087
2111.038,0.088
2111.068,0.090
2111.098,0.092
2111.129,0.094
2111.159,0.099
2111.189,0.105
2111.219,0.114
2111.249,0.128
2111.279,0.148
2111.309,0.176
2111.340,0.213
2111.370,0.260
2111.400,0.315
2111.430,0.373
2111.460,0.426
2111.490,0.461
2111.520,0.468
2111.551,0.444
2111.581,0.397
2111.611,0.339
2111.641,0.282
2111.671,0.231
2111.701,0.190
2111.731,0.158
2111.761,0.135
2111.792,0.119
2111.822,0.108
2111.852,0.101
2111.882,0.096
2111.912,0.093
2111.942,0.091
2111.972,0.089
2112.002,0.088
2112.032,0.087
2112.063,0.086
2112.093,0.086
2112.123,0.085
2112.153,0.084
2112.183,0.084
2112.213,0.083
2112.243,0.083
2112.274,0.083
2112.304,0.083
2112.334,0.083
2112.364,0.082
2112.394,0.082
2112.424,0.082
2112.454,0.082
2112.485,0.082
2112.515,0.082
2112.545,0.082
2112.575,0.082
2112.605,0.082
2112.635,0.081
2112.665,0.081
2112.696,0.081
2112.726,0.081
2112.756,0.081
2112.786,0.081
2112.816,0.081
2112.846,0.081
2112.876,0.081
2112.906,0.081
2112.937,0.081
2112.967,0.080
2112.997,0.080
2113.027,0.080
2113.057,0.081
2113.087,0.081
2113.117,0.081
2113.147,0.081
2113.177,0.082
2113.208,0.083
2113.238,0.085
2113.268,0.087
2113.298,0.089
2113.328,0.090
2113.358,0.091
2113.388,0.091
2113.419,0.090
2113.449,0.089
2113.479,0.087
2113.509,0.085
2113.539,0.084
2113.569,0.082
2113.599,0.082
2113.630,0.081
2113.660,0.082
2113.690,0.083
2113.720,0.086
2113.750,0.090
2113.780,0.095
2113.810,0.101
2113.841,0.107
2113.871,0.112
2113.901,0.115
2113.931,0.116
2113.961,0.114
2113.991,0.110
2114.021,0.104
2114.052,0.098
2114.082,0.092
2114.112,0.088
2114.142,0.085
2114.172,0.083
2114.202,0.082
2114.232,0.082
2114.262,0.081
2114.292,0.081
2114.323,0.081
2114.353,0.081
2114.383,0.081
2114.413,0.081
2114.443,0.081
2114.473,0.081
2114.503,0.082
2114.533,0.082
2114.564,0.082
2114.594,0.082
2114.624,0.082
2114.654,0.082
2114.684,0.082
2114.714,0.082
2114.744,0.082
2114.775,0.082
2114.805,0.082
2114.835,0.083
2114.865,0.083
2114.895,0.083
2114.925,0.083
2114.955,0.084
2114.986,0.084
2115.016,0.085
2115.046,0.086
2115.076,0.086
2115.106,0.088
2115.136,0.089
2115.166,0.091
2115.197,0.093
2115.227,0.097
2115.257,0.102
2115.287,0.109
2115.317,0.120
2115.347,0.137
2115.377,0.160
2115.407,0.193
2115.438,0.234
2115.468,0.285
2115.498,0.343
2115.528,0.401
2115.558,0.450
2115.588,0.475
2115.618,0.469
2115.648,0.434
2115.678,0.381
2115.709,0.321
2115.739,0.265
2115.769,0.216
2115.799,0.178
2115.829,0.150
2115.859,0.129
2115.889,0.115
2115.920,0.106
2115.950,0.100
2115.980,0.096
2116.010,0.093
2116.040,0.091
2116.070,0.089
2116.100,0.088
2116.131,0.087
2116.161,0.086
2116.191,0.086
2116.221,0.085
2116.251,0.084
2116.281,0.084
2116.311,0.084
2116.342,0.083
2116.372,0.083
2116.402,0.083
2116.432,0.083
2116.462,0.082
2116.492,0.082
2116.522,0.082
2116.552,0.082
2116.583,0.083
2116.613,0.084
2116.643,0.085
2116.673,0.087
2116.703,0.088
2116.733,0.090
2116.763,0.091
2116.793,0.091
2116.823,0.091
2116.854,0.091
2116.884,0.089
2116.914,0.087
2116.944,0.085
2116.974,0.083
2117.004,0.082
2117.034,0.081
2117.065,0.081
2117.095,0.081
2117.125,0.082
2117.155,0.083
2117.185,0.086
2117.215,0.089
2117.245,0.094
2117.276,0.100
2117.306,0.107
2117.336,0.113
2117.366,0.117
2117.396,0.119
2117.426,0.117
2117.456,0.114
2117.487,0.108
2117.517,0.101
2117.547,0.095
2117.577,0.090
2117.607,0.086
2117.637,0.083
2117.667,0.082
2117.698,0.081
2117.728,0.081
2117.758,0.080
2117.788,0.081
2117.818,0.081
2117.848,0.081
2117.878,0.081
2117.908,0.081
2117.938,0.080
2117.969,0.080
2117.999,0.080
2118.029,0.080
2118.059,0.080
2118.089,0.081
2118.119,0.081
2118.149,0.081
2118.179,0.081
2118.210,0.081
2118.240,0.081
2118.270,0.081
2118.300,0.081
2118.330,0.081
2118.360,0.081
2118.390,0.081
2118.421,0.081
2118.451,0.081
2118.481,0.081
2118.511,0.081
2118.541,0.081
2118.571,0.082
2118.601,0.082
2118.632,0.082
2118.662,0.082
2118.692,0.082
2118.722,0.082
2118.752,0.082
2118.782,0.082
2118.812,0.082
2118.843,0.083
2118.873,0.083
2118.903,0.083
2118.933,0.083
2118.963,0.083
2118.993,0.084
2119.023,0.084
2119.053,0.085
2119.083,0.086
2119.114,0.086
2119.144,0.087
2119.174,0.088
2119.204,0.090
2119.234,0.092
2119.264,0.095
2119.294,0.099
2119.324,0.106
2119.355,0.115
2119.385,0.129
2119.415,0.149
2119.445,0.177
2119.475,0.214
2119.505,0.261
2119.535,0.316
2119.566,0.376
2119.596,0.430
2119.626,0.468
2119.656,0.477
2119.686,0.455
2119.716,0.408
2119.746,0.350
2119.777,0.291
2119.807,0.239
2119.837,0.196
2119.867,0.162
2119.897,0.138
2119.927,0.122
2119.957,0.111
2119.988,0.104
2120.018,0.101
2120.048,0.098
2120.078,0.098
2120.108,0.098
2120.138,0.098
2120.168,0.098
2120.198,0.097
2120.229,0.096
2120.259,0.095
2120.289,0.092
2120.319,0.090
2120.349,0.088
2120.379,0.086
2120.409,0.085
2120.439,0.084
2120.469,0.083
2120.500,0.083
2120.530,0.083
2120.560,0.083
2120.590,0.084
2120.620,0.086
2120.650,0.089
2120.680,0.094
2120.711,0.100
2120.741,0.106
2120.771,0.112
2120.801,0.117
2120.831,0.119
2120.861,0.119
2120.891,0.116
2120.922,0.111
2120.952,0.104
2120.982,0.098
2121.012,0.092
2121.042,0.087
2121.072,0.084
2121.102,0.082
2121.133,0.081
2121.163,0.081
2121.193,0.081
2121.223,0.081
2121.253,0.081
2121.283,0.081
2121.313,0.081
2121.344,0.081
2121.374,0.081
2121.404,0.081
2121.434,0.081
2121.464,0.081
2121.494,0.080
2121.524,0.080
2121.554,0.080
2121.584,0.080
2121.615,0.081
2121.645,0.081
2121.675,0.081
2121.705,0.081
2121.735,0.081
2121.765,0.080
2121.795,0.080
2121.825,0.080
2121.856,0.081
2121.886,0.081
2121.916,0.081
2121.946,0.081
2121.976,0.081
2122.006,0.081
2122.036,0.081
2122.067,0.081
2122.097,0.081
2122.127,0.081
2122.157,0.081
2122.187,0.081
2122.217,0.081
2122.247,0.081
2122.278,0.081
2122.308,0.081
2122.338,0.081
2122.368,0.081
2122.398,0.081
2122.428,0.081
2122.458,0.081
2122.489,0.081
2122.519,0.081
2122.549,0.082
2122.579,0.082
2122.609,0.082
2122.639,0.082
2122.669,0.082
2122.699,0.082
2122.729,0.082
2122.760,0.082
2122.790,0.082
2122.820,0.083
2122.850,0.083
2122.880,0.083
2122.910,0.083
2122.940,0.083
2122.970,0.084
2123.001,0.084
2123.031,0.084
2123.061,0.085
2123.091,0.085
2123.121,0.086
2123.151,0.087
2123.181,0.088
2123.212,0.089
2123.242,0.091
2123.272,0.093
2123.302,0.097
2123.332,0.103
2123.362,0.112
2123.392,0.124
2123.423,0.143
2123.453,0.169
2123.483,0.205
2123.513,0.250
2123.543,0.304
2123.573,0.364
2123.603,0.421
2123.634,0.465
2123.664,0.482
2123.694,0.468
2123.724,0.425
2123.754,0.368
2123.784,0.308
2123.814,0.253
2123.844,0.207
2123.875,0.171
2123.905,0.144
2123.935,0.125
2123.965,0.113
2123.995,0.106
2124.025,0.102
2124.055,0.101
2124.085,0.103
2124.116,0.107
2124.146,0.112
2124.176,0.117
2124.206,0.122
2124.236,0.124
2124.266,0.123
2124.296,0.120
2124.326,0.115
2124.357,0.108
2124.387,0.101
2124.417,0.095
2124.447,0.090
2124.477,0.086
2124.507,0.084
2124.537,0.083
2124.568,0.082
2124.598,0.082
2124.628,0.082
2124.658,0.082
2124.688,0.082
2124.718,0.082
2124.748,0.082
2124.779,0.081
2124.809,0.081
2124.839,0.081
2124.869,0.081
2124.899,0.081
2124.929,0.081
2124.959,0.081
2124.990,0.081
2125.020,0.081
2125.050,0.081
2125.080,0.081
2125.110,0.081
2125.140,0.081
2125.170,0.081
2125.200,0.081
2125.230,0.081
2125.261,0.081
2125.291,0.081
2125.321,0.080
2125.351,0.080
2125.381,0.080
2125.411,0.080
2125.441,0.080
2125.472,0.080
2125.502,0.080
2125.532,0.080
2125.562,0.080
2125.592,0.080
2125.622,0.080
2125.652,0.080
2125.682,0.080
2125.713,0.080
2125.743,0.081
2125.773,0.081
2125.803,0.080
2125.833,0.080
2125.863,0.080
2125.893,0.080
2125.924,0.080
2125.954,0.080
2125.984,0.080
2126.014,0.080
2126.044,0.080
2126.074,0.080
2126.104,0.080
2126.135,0.081
2126.165,0.081
2126.195,0.081
2126.225,0.080
2126.255,0.080
2126.285,0.081
2126.315,0.081
2126.345,0.081
2126.375,0.081
2126.406,0.081
2126.436,0.081
2126.466,0.081
2126.496,0.081
2126.526,0.081
2126.556,0.081
2126.586,0.082
2126.617,0.082
2126.647,0.082
2126.677,0.083
2126.707,0.084
2126.737,0.085
2126.767,0.087
2126.797,0.089
2126.827,0.091
2126.858,0.092
2126.888,0.093
2126.918,0.093
2126.948,0.092
2126.978,0.091
2127.008,0.090
2127.038,0.088
2127.069,0.087
2127.099,0.087
2127.129,0.087
2127.159,0.088
2127.189,0.089
2127.219,0.090
2127.249,0.093
2127.280,0.096
2127.310,0.101
2127.340,0.108
2127.370,0.118
2127.400,0.133
2127.430,0.156
2127.460,0.186
2127.490,0.226
2127.521,0.275
2127.551,0.330
2127.581,0.385
2127.611,0.431
2127.641,0.455
2127.671,0.450
2127.701,0.417
2127.731,0.366
2127.762,0.309
2127.792,0.255
2127.822,0.208
2127.852,0.172
2127.882,0.145
2127.912,0.125
2127.942,0.112
2127.973,0.104
2128.003,0.098
2128.033,0.094
2128.063,0.091
2128.093,0.089
2128.123,0.088
2128.153,0.087
2128.183,0.086
2128.214,0.085
2128.244,0.085
2128.274,0.084
2128.304,0.083
2128.334,0.083
2128.364,0.083
2128.394,0.083
2128.425,0.083
2128.455,0.082
2128.485,0.082
2128.515,0.082
2128.545,0.082
2128.575,0.081
2128.605,0.081
2128.635,0.081
2128.666,0.081
2128.696,0.081
2128.726,0.081
2128.756,0.081
2128.786,0.081
2128.816,0.081
2128.846,0.081
2128.876,0.081
2128.907,0.081
2128.937,0.081
2128.967,0.081
2128.997,0.080
2129.027,0.080
2129.057,0.080
2129.087,0.080
2129.118,0.081
2129.148,0.081
2129.178,0.081
2129.208,0.081
2129.238,0.080
2129.268,0.080
2129.298,0.080
2129.328,0.080
2129.359,0.081
2129.389,0.081
2129.419,0.081
2129.449,0.081
2129.479,0.080
2129.509,0.080
2129.539,0.080
2129.570,0.080
2129.600,0.080
2129.630,0.081
2129.660,0.081
2129.690,0.080
2129.720,0.080
2129.750,0.080
2129.781,0.080
2129.811,0.080
2129.841,0.081
2129.871,0.081
2129.901,0.081
2129.931,0.081
2129.961,0.081
2129.991,0.082
2130.021,0.083
2130.052,0.085
2130.082,0.086
2130.112,0.088
2130.142,0.089
2130.172,0.090
2130.202,0.090
2130.232,0.089
2130.263,0.088
2130.293,0.087
2130.323,0.086
2130.353,0.084
2130.383,0.083
2130.413,0.082
2130.443,0.081
2130.474,0.081
2130.504,0.081
2130.534,0.081
2130.564,0.081
2130.594,0.082
2130.624,0.082
2130.654,0.082
2130.684,0.082
2130.715,0.084
2130.745,0.086
2130.775,0.089
2130.805,0.094
2130.835,0.100
2130.865,0.106
2130.895,0.112
2130.926,0.117
2130.956,0.120
2130.986,0.121
2131.016,0.119
2131.046,0.114
2131.076,0.109
2131.106,0.103
2131.136,0.098
2131.167,0.095
2131.197,0.093
2131.227,0.094
2131.257,0.097
2131.287,0.102
2131.317,0.111
2131.347,0.125
2131.377,0.145
2131.408,0.172
2131.438,0.209
2131.468,0.254
2131.498,0.305
2131.528,0.356
2131.558,0.399
2131.588,0.422
2131.619,0.418
2131.649,0.389
2131.679,0.343
2131.709,0.291
2131.739,0.241
2131.769,0.198
2131.799,0.163
2131.830,0.138
2131.860,0.120
2131.890,0.108
2131.920,0.100
2131.950,0.095
2131.980,0.092
2132.010,0.090
2132.040,0.088
2132.071,0.087
2132.101,0.086
2132.131,0.085
2132.161,0.084
2132.191,0.084
2132.221,0.083
2132.251,0.083
2132.281,0.083
2132.312,0.082
2132.342,0.082
2132.372,0.082
2132.402,0.082
2132.432,0.082
2132.462,0.081
2132.492,0.081
2132.522,0.081
2132.553,0.081
2132.583,0.081
2132.613,0.081
2132.643,0.081
2132.673,0.081
2132.703,0.081
2132.733,0.081
2132.764,0.081
2132.794,0.081
2132.824,0.081
2132.854,0.080
2132.884,0.080
2132.914,0.080
2132.944,0.080
2132.975,0.080
2133.005,0.080
2133.035,0.080
2133.065,0.080
2133.095,0.080
2133.125,0.080
2133.155,0.080
2133.185,0.080
2133.216,0.081
2133.246,0.082
2133.276,0.083
2133.306,0.084
2133.336,0.085
2133.366,0.086
2133.396,0.087
2133.427,0.088
2133.457,0.089
2133.487,0.088
2133.517,0.088
2133.547,0.086
2133.577,0.085
2133.607,0.083
2133.637,0.082
2133.667,0.081
2133.698,0.081
2133.728,0.080
2133.758,0.080
2133.788,0.080
2133.818,0.080
2133.848,0.080
2133.878,0.080
2133.909,0.080
2133.939,0.080
2133.969,0.081
2133.999,0.081
2134.029,0.082
2134.059,0.084
2134.089,0.087
2134.120,0.091
2134.150,0.097
2134.180,0.103
2134.210,0.108
2134.240,0.113
2134.270,0.115
2134.300,0.115
2134.331,0.112
2134.361,0.108
2134.391,0.103
2134.421,0.097
2134.451,0.092
2134.481,0.089
2134.511,0.086
2134.541,0.084
2134.572,0.083
2134.602,0.082
2134.632,0.082
2134.662,0.082
2134.692,0.081
2134.722,0.081
2134.752,0.081
2134.782,0.082
2134.813,0.082
2134.843,0.082
2134.873,0.082
2134.903,0.082
2134.933,0.083
2134.963,0.083
2134.993,0.084
2135.023,0.084
2135.054,0.085
2135.084,0.086
2135.114,0.087
2135.144,0.089
2135.174,0.093
2135.204,0.097
2135.234,0.105
2135.265,0.117
2135.295,0.134
2135.325,0.159
2135.355,0.192
2135.385,0.231
2135.415,0.276
2135.445,0.321
2135.476,0.356
2135.506,0.375
2135.536,0.370
2135.566,0.344
2135.596,0.303
2135.626,0.257
2135.656,0.213
2135.686,0.176
2135.717,0.146
2135.747,0.125
2135.777,0.110
2135.807,0.100
2135.837,0.094
2135.867,0.090
2135.897,0.088
2135.927,0.086
2135.958,0.085
2135.988,0.084
2136.018,0.084
2136.048,0.083
2136.078,0.083
2136.108,0.082
2136.138,0.082
2136.168,0.082
2136.199,0.081
2136.229,0.081
2136.259,0.081
2136.289,0.081
2136.319,0.081
2136.349,0.081
2136.379,0.081
2136.410,0.081
2136.440,0.081
2136.470,0.082
2136.500,0.083
2136.530,0.084
2136.560,0.085
2136.590,0.086
2136.621,0.087
2136.651,0.087
2136.681,0.088
2136.711,0.088
2136.741,0.087
2136.771,0.086
2136.801,0.085
2136.832,0.083
2136.862,0.082
2136.892,0.081
2136.922,0.080
2136.952,0.080
2136.982,0.080
2137.012,0.080
2137.042,0.080
2137.073,0.080
2137.103,0.080
2137.133,0.080
2137.163,0.080
2137.193,0.080
2137.223,0.080
2137.253,0.080
2137.283,0.081
2137.313,0.082
2137.344,0.084
2137.374,0.087
2137.404,0.091
2137.434,0.097
2137.464,0.102
2137.494,0.107
2137.524,0.110
2137.555,0.112
2137.585,0.111
2137.615,0.108
2137.645,0.103
2137.675,0.097
2137.705,0.092
2137.735,0.087
2137.766,0.084
2137.796,0.082
2137.826,0.081
2137.856,0.081
2137.886,0.081
2137.916,0.081
2137.946,0.081
2137.977,0.082
2138.007,0.082
2138.037,0.082
2138.067,0.082
2138.097,0.082
2138.127,0.082
2138.157,0.081
2138.188,0.081
2138.218,0.081
2138.248,0.080
2138.278,0.080
2138.308,0.080
2138.338,0.080
2138.368,0.080
2138.398,0.080
2138.428,0.080
2138.458,0.080
2138.489,0.080
2138.519,0.080
2138.549,0.080
2138.579,0.081
2138.609,0.081
2138.639,0.081
2138.669,0.080
2138.700,0.080
2138.730,0.081
2138.760,0.081
2138.790,0.081
2138.820,0.082
2138.850,0.082
2138.880,0.082
2138.911,0.082
2138.941,0.083
2138.971,0.083
2139.001,0.084
2139.031,0.085
2139.061,0.087
2139.091,0.091
2139.122,0.096
2139.152,0.106
2139.182,0.120
2139.212,0.140
2139.242,0.167
2139.272,0.199
2139.302,0.233
2139.333,0.266
2139.363,0.290
2139.393,0.299
2139.423,0.292
2139.453,0.269
2139.483,0.237
2139.513,0.202
2139.543,0.169
2139.573,0.142
2139.604,0.121
2139.634,0.106
2139.664,0.097
2139.694,0.092
2139.724,0.089
2139.754,0.088
2139.784,0.088
2139.814,0.088
2139.845,0.089
2139.875,0.088
2139.905,0.088
2139.935,0.087
2139.965,0.086
2139.995,0.085
2140.025,0.083
2140.056,0.082
2140.086,0.081
2140.116,0.081
2140.146,0.081
2140.176,0.081
2140.206,0.081
2140.236,0.080
2140.267,0.080
2140.297,0.080
2140.327,0.080
2140.357,0.080
2140.387,0.080
2140.417,0.080
2140.447,0.080
2140.478,0.080
2140.508,0.080
2140.538,0.081
2140.568,0.083
2140.598,0.085
2140.628,0.088
2140.658,0.093
2140.688,0.098
2140.719,0.102
2140.749,0.106
2140.779,0.108
2140.809,0.109
2140.839,0.107
2140.869,0.103
2140.899,0.098
2140.929,0.093
2140.959,0.089
2140.990,0.085
2141.020,0.082
2141.050,0.081
2141.080,0.080
2141.110,0.080
2141.140,0.080
2141.170,0.080
2141.201,0.080
2141.231,0.080
2141.261,0.080
2141.291,0.080
2141.321,0.080
2141.351,0.080
2141.381,0.081
2141.412,0.081
2141.442,0.081
2141.472,0.081
2141.502,0.081
2141.532,0.082
2141.562,0.082
2141.592,0.082
2141.623,0.081
2141.653,0.081
2141.683,0.080
2141.713,0.080
2141.743,0.080
2141.773,0.079
2141.803,0.079
2141.833,0.079
2141.864,0.079
2141.894,0.079
2141.924,0.079
2141.954,0.079
2141.984,0.079
2142.014,0.079
2142.044,0.079
2142.074,0.080
2142.104,0.080
2142.135,0.080
2142.165,0.079
2142.195,0.079
2142.225,0.079
2142.255,0.080
2142.285,0.080
2142.315,0.080
2142.346,0.080
2142.376,0.080
2142.406,0.080
2142.436,0.080
2142.466,0.080
2142.496,0.080
2142.526,0.080
2142.557,0.080
2142.587,0.080
2142.617,0.080
2142.647,0.080
2142.677,0.079
2142.707,0.079
2142.737,0.080
2142.768,0.080
2142.798,0.080
2142.828,0.081
2142.858,0.081
2142.888,0.082
2142.918,0.083
2142.948,0.084
2142.979,0.084
2143.009,0.085
2143.039,0.085
2143.069,0.085
2143.099,0.084
2143.129,0.084
2143.159,0.083
2143.189,0.082
2143.219,0.081
2143.250,0.080
2143.280,0.080
2143.310,0.080
2143.340,0.080
2143.370,0.080
2143.400,0.079
2143.430,0.079
2143.460,0.079
2143.491,0.080
2143.521,0.080
2143.551,0.080
2143.581,0.079
2143.611,0.079
2143.641,0.079
2143.671,0.079
2143.702,0.080
2143.732,0.080
2143.762,0.081
2143.792,0.083
2143.822,0.086
2143.852,0.089
2143.882,0.094
2143.913,0.098
2143.943,0.102
2143.973,0.105
2144.003,0.106
2144.033,0.105
2144.063,0.102
2144.093,0.098
2144.124,0.093
2144.154,0.089
2144.184,0.085
2144.214,0.083
2144.244,0.081
2144.274,0.080
2144.304,0.080
2144.334,0.080
2144.365,0.079
2144.395,0.079
2144.425,0.079
2144.455,0.079
2144.485,0.079
2144.515,0.080
2144.545,0.080
2144.575,0.080
2144.605,0.080
2144.636,0.080
2144.666,0.080
2144.696,0.080
2144.726,0.080
2144.756,0.080
2144.786,0.080
2144.816,0.080
2144.847,0.080
2144.877,0.080
2144.907,0.081
2144.937,0.081
2144.967,0.082
2144.997,0.082
2145.027,0.082
2145.058,0.082
2145.088,0.082
2145.118,0.081
2145.148,0.081
2145.178,0.080
2145.208,0.080
2145.238,0.080
2145.269,0.080
2145.299,0.080
2145.329,0.080
2145.359,0.080
2145.389,0.080
2145.419,0.080
2145.449,0.080
2145.479,0.080
2145.510,0.080
2145.540,0.080
2145.570,0.080
2145.600,0.080
2145.630,0.080
2145.660,0.080
2145.690,0.080
2145.720,0.080
2145.750,0.080
2145.781,0.080
2145.811,0.080
2145.841,0.080
2145.871,0.080
2145.901,0.080
2145.931,0.081
2145.961,0.081
2145.992,0.082
2146.022,0.082
2146.052,0.083
2146.082,0.084
2146.112,0.084
2146.142,0.085
2146.172,0.085
2146.203,0.085
2146.233,0.084
2146.263,0.084
2146.293,0.083
2146.323,0.082
2146.353,0.081
2146.383,0.081
2146.414,0.081
2146.444,0.081
2146.474,0.081
2146.504,0.081
2146.534,0.082
2146.564,0.082
2146.594,0.082
2146.625,0.083
2146.655,0.083
2146.685,0.085
2146.715,0.087
2146.745,0.090
2146.775,0.096
2146.805,0.105
2146.835,0.119
2146.865,0.140
2146.896,0.166
2146.926,0.199
2146.956,0.236
2146.986,0.273
2147.016,0.302
2147.046,0.319
2147.076,0.318
2147.106,0.300
2147.137,0.269
2147.167,0.233
2147.197,0.197
2147.227,0.165
2147.257,0.139
2147.287,0.120
2147.317,0.106
2147.348,0.097
2147.378,0.091
2147.408,0.087
2147.438,0.085
2147.468,0.084
2147.498,0.083
2147.528,0.082
2147.559,0.082
2147.589,0.082
2147.619,0.082
2147.649,0.081
2147.679,0.081
2147.709,0.081
2147.739,0.080
2147.770,0.080
2147.800,0.080
2147.830,0.080
2147.860,0.080
2147.890,0.080
2147.920,0.080
2147.950,0.080
2147.980,0.080
2148.010,0.080
2148.041,0.080
2148.071,0.080
2148.101,0.080
2148.131,0.080
2148.161,0.080
2148.191,0.080
2148.221,0.080
2148.251,0.080
2148.282,0.081
2148.312,0.081
2148.342,0.082
2148.372,0.082
2148.402,0.082
2148.432,0.082
2148.462,0.082
2148.493,0.082
2148.523,0.082
2148.553,0.082
2148.583,0.081
2148.613,0.081
2148.643,0.080
2148.673,0.080
2148.704,0.080
2148.734,0.080
2148.764,0.080
2148.794,0.080
2148.824,0.080
2148.854,0.080
2148.884,0.080
2148.915,0.080
2148.945,0.080
2148.975,0.080
2149.005,0.080
2149.035,0.081
2149.065,0.081
2149.095,0.081
2149.125,0.082
2149.156,0.082
2149.186,0.083
2149.216,0.083
2149.246,0.084
2149.276,0.084
2149.306,0.084
2149.336,0.083
2149.366,0.083
2149.396,0.082
2149.427,0.082
2149.457,0.081
2149.487,0.081
2149.517,0.081
2149.547,0.081
2149.577,0.081
2149.607,0.081
2149.638,0.081
2149.668,0.081
2149.698,0.081
2149.728,0.081
2149.758,0.081
2149.788,0.081
2149.818,0.081
2149.849,0.081
2149.879,0.081
2149.909,0.081
2149.939,0.081
2149.969,0.081
2149.999,0.082
2150.029,0.082
2150.060,0.083
2150.090,0.084
2150.120,0.086
2150.150,0.088
2150.180,0.092
2150.210,0.095
2150.240,0.099
2150.271,0.102
2150.301,0.103
2150.331,0.103
2150.361,0.102
2150.391,0.100
2150.421,0.098
2150.451,0.097
2150.481,0.097
2150.511,0.100
2150.542,0.106
2150.572,0.117
2150.602,0.134
2150.632,0.158
2150.662,0.191
2150.692,0.231
2150.722,0.277
2150.752,0.323
2150.783,0.360
2150.813,0.381
2150.843,0.378
2150.873,0.353
2150.903,0.313
2150.933,0.266
2150.963,0.221
2150.994,0.182
2151.024,0.151
2151.054,0.128
2151.084,0.113
2151.114,0.102
2151.144,0.096
2151.174,0.092
2151.205,0.089
2151.235,0.087
2151.265,0.086
2151.295,0.085
2151.325,0.085
2151.355,0.084
2151.385,0.084
2151.416,0.083
2151.446,0.083
2151.476,0.082
2151.506,0.082
2151.536,0.082
2151.566,0.082
2151.596,0.082
2151.626,0.082
2151.656,0.082
2151.687,0.082
2151.717,0.082
2151.747,0.082
2151.777,0.082
2151.807,0.083
2151.837,0.083
2151.867,0.083
2151.897,0.083
2151.928,0.082
2151.958,0.082
2151.988,0.082
2152.018,0.081
2152.048,0.081
2152.078,0.081
2152.108,0.081
2152.139,0.081
2152.169,0.082
2152.199,0.082
2152.229,0.082
2152.259,0.083
2152.289,0.083
2152.319,0.083
2152.350,0.083
2152.380,0.083
2152.410,0.082
2152.440,0.082
2152.470,0.081
2152.500,0.081
2152.530,0.081
2152.561,0.081
2152.591,0.081
2152.621,0.081
2152.651,0.080
2152.681,0.080
2152.711,0.080
2152.741,0.080
2152.771,0.081
2152.802,0.081
2152.832,0.081
2152.862,0.081
2152.892,0.081
2152.922,0.081
2152.952,0.081
2152.982,0.081
2153.012,0.081
2153.042,0.081
2153.073,0.081
2153.103,0.081
2153.133,0.081
2153.163,0.082
2153.193,0.083
2153.223,0.084
2153.253,0.087
2153.284,0.089
2153.314,0.092
2153.344,0.095
2153.374,0.096
2153.404,0.097
2153.434,0.097
2153.464,0.096
2153.495,0.094
2153.525,0.091
2153.555,0.088
2153.585,0.086
2153.615,0.084
2153.645,0.083
2153.675,0.082
2153.706,0.082
2153.736,0.082
2153.766,0.082
2153.796,0.082
2153.826,0.083
2153.856,0.083
2153.886,0.083
2153.917,0.083
2153.947,0.084
2153.977,0.084
2154.007,0.085
2154.037,0.085
2154.067,0.086
2154.097,0.087
2154.127,0.088
2154.157,0.090
2154.188,0.093
2154.218,0.097
2154.248,0.102
2154.278,0.112
2154.308,0.125
2154.338,0.145
2154.368,0.173
2154.398,0.209
2154.429,0.255
2154.459,0.307
2154.489,0.360
2154.519,0.406
2154.549,0.432
2154.579,0.432
2154.609,0.405
2154.640,0.359
2154.670,0.305
2154.700,0.253
2154.730,0.208
2154.760,0.171
2154.790,0.144
2154.820,0.124
2154.851,0.111
2154.881,0.103
2154.911,0.097
2154.941,0.093
2154.971,0.091
2155.001,0.089
2155.031,0.088
2155.062,0.087
2155.092,0.087
2155.122,0.087
2155.152,0.087
2155.182,0.087
2155.212,0.087
2155.242,0.087
2155.272,0.087
2155.302,0.087
2155.333,0.087
2155.363,0.086
2155.393,0.085
2155.423,0.084
2155.453,0.083
2155.483,0.083
2155.513,0.082
2155.543,0.082
2155.574,0.082
2155.604,0.081
2155.634,0.081
2155.664,0.081
2155.694,0.081
2155.724,0.081
2155.754,0.081
2155.785,0.081
2155.815,0.081
2155.845,0.081
2155.875,0.081
2155.905,0.081
2155.935,0.081
2155.965,0.081
2155.996,0.081
2156.026,0.081
2156.056,0.081
2156.086,0.081
2156.116,0.081
2156.146,0.081
2156.176,0.081
2156.207,0.081
2156.237,0.082
2156.267,0.083
2156.297,0.084
2156.327,0.086
2156.357,0.088
2156.387,0.090
2156.417,0.092
2156.448,0.094
2156.478,0.094
2156.508,0.094
2156.538,0.092
2156.568,0.090
2156.598,0.088
2156.628,0.086
2156.658,0.084
2156.688,0.082
2156.719,0.082
2156.749,0.081
2156.779,0.081
2156.809,0.081
2156.839,0.081
2156.869,0.081
2156.899,0.081
2156.930,0.081
2156.960,0.081
2156.990,0.081
2157.020,0.081
2157.050,0.081
2157.080,0.081
2157.110,0.081
2157.141,0.081
2157.171,0.081
2157.201,0.081
2157.231,0.082
2157.261,0.082
2157.291,0.082
2157.321,0.082
2157.352,0.082
2157.382,0.082
2157.412,0.082
2157.442,0.082
2157.472,0.083
2157.502,0.083
2157.532,0.083
2157.563,0.083
2157.593,0.084
2157.623,0.084
2157.653,0.084
2157.683,0.085
2157.713,0.086
2157.743,0.087
2157.773,0.088
2157.803,0.089
2157.834,0.091
2157.864,0.093
2157.894,0.096
2157.924,0.101
2157.954,0.108
2157.984,0.119
2158.014,0.135
2158.044,0.157
2158.075,0.188
2158.105,0.228
2158.135,0.278
2158.165,0.334
2158.195,0.392
2158.225,0.441
2158.255,0.469
2158.286,0.467
2158.316,0.435
2158.346,0.383
2158.376,0.325
2158.406,0.269
2158.436,0.221
2158.466,0.182
2158.497,0.153
2158.527,0.132
2158.557,0.118
2158.587,0.108
2158.617,0.102
2158.647,0.097
2158.677,0.094
2158.708,0.092
2158.738,0.090
2158.768,0.089
2158.798,0.087
2158.828,0.086
2158.858,0.086
2158.888,0.085
2158.918,0.084
2158.948,0.084
2158.979,0.084
2159.009,0.084
2159.039,0.083
2159.069,0.083
2159.099,0.083
2159.129,0.083
2159.159,0.082
2159.189,0.083
2159.220,0.083
2159.250,0.083
2159.280,0.083
2159.310,0.084
2159.340,0.085
2159.370,0.086
2159.400,0.088
2159.431,0.090
2159.461,0.091
2159.491,0.092
2159.521,0.092
2159.551,0.091
2159.581,0.090
2159.611,0.088
2159.642,0.086
2159.672,0.085
2159.702,0.083
2159.732,0.083
2159.762,0.082
2159.792,0.082
2159.822,0.081
2159.853,0.081
2159.883,0.081
2159.913,0.081
2159.943,0.081
2159.973,0.081
2160.003,0.081
2160.033,0.081
2160.063,0.081
2160.094,0.081
2160.124,0.081
2160.154,0.081
2160.184,0.081
2160.214,0.081
2160.244,0.081
2160.274,0.081
2160.304,0.081
2160.335,0.081
2160.365,0.081
2160.395,0.081
2160.425,0.081
2160.455,0.081
2160.485,0.081
2160.515,0.081
2160.545,0.081
2160.576,0.081
2160.606,0.081
2160.636,0.082
2160.666,0.082
2160.696,0.082
2160.726,0.082
2160.756,0.082
2160.787,0.082
2160.817,0.082
2160.847,0.082
2160.877,0.082
2160.907,0.082
2160.937,0.082
2160.967,0.083
2160.998,0.083
2161.028,0.083
2161.058,0.083
2161.088,0.083
2161.118,0.083
2161.148,0.084
2161.178,0.084
2161.208,0.085
2161.239,0.085
2161.269,0.085
2161.299,0.086
2161.329,0.086
2161.359,0.087
2161.389,0.087
2161.419,0.088
2161.449,0.089
2161.480,0.090
2161.510,0.092
2161.540,0.095
2161.570,0.099
2161.600,0.105
2161.630,0.114
2161.660,0.127
2161.691,0.145
2161.721,0.171
2161.751,0.206
2161.781,0.252
2161.811,0.306
2161.841,0.367
2161.871,0.426
2161.901,0.473
2161.932,0.494
2161.962,0.483
2161.992,0.442
2162.022,0.384
2162.052,0.322
2162.082,0.265
2162.112,0.217
2162.143,0.179
2162.173,0.151
2162.203,0.130
2162.233,0.117
2162.263,0.108
2162.293,0.102
2162.323,0.099
2162.354,0.097
2162.384,0.096
2162.414,0.096
2162.444,0.096
2162.474,0.096
2162.504,0.095
2162.534,0.094
2162.564,0.092
2162.594,0.091
2162.625,0.089
2162.655,0.087
2162.685,0.086
2162.715,0.085
2162.745,0.084
2162.775,0.083
2162.805,0.083
2162.836,0.083
2162.866,0.083
2162.896,0.083
2162.926,0.082
2162.956,0.082
2162.986,0.082
2163.016,0.082
2163.046,0.082
2163.077,0.082
2163.107,0.082
2163.137,0.082
2163.167,0.082
2163.197,0.082
2163.227,0.081
2163.257,0.081
2163.288,0.081
2163.318,0.081
2163.348,0.081
2163.378,0.081
2163.408,0.081
2163.438,0.081
2163.468,0.081
2163.499,0.081
2163.529,0.081
2163.559,0.081
2163.589,0.081
2163.619,0.081
2163.649,0.081
2163.679,0.081
2163.709,0.081
2163.740,0.081
2163.770,0.081
2163.800,0.081
2163.830,0.081
2163.860,0.081
2163.890,0.081
2163.920,0.081
2163.950,0.081
2163.981,0.081
2164.011,0.081
2164.041,0.082
2164.071,0.082
2164.101,0.082
2164.131,0.082
2164.161,0.082
2164.192,0.082
2164.222,0.082
2164.252,0.082
2164.282,0.082
2164.312,0.082
2164.342,0.082
2164.372,0.082
2164.402,0.082
2164.433,0.082
2164.463,0.082
2164.493,0.082
2164.523,0.082
2164.553,0.083
2164.583,0.083
2164.613,0.083
2164.644,0.083
2164.674,0.083
2164.704,0.083
2164.734,0.083
2164.764,0.084
2164.794,0.084
2164.824,0.084
2164.854,0.084
2164.885,0.084
2164.915,0.085
2164.945,0.086
2164.975,0.086
2165.005,0.087
2165.035,0.089
2165.065,0.090
2165.095,0.091
2165.126,0.093
2165.156,0.096
2165.186,0.099
2165.216,0.104
2165.246,0.111
2165.276,0.122
2165.306,0.138
2165.337,0.161
2165.367,0.192
2165.397,0.233
2165.427,0.285
2165.457,0.345
2165.487,0.408
2165.517,0.466
2165.547,0.504
2165.578,0.509
2165.608,0.482
2165.638,0.429
2165.668,0.366
2165.698,0.304
2165.728,0.249
2165.758,0.204
2165.789,0.169
2165.819,0.144
2165.849,0.126
2165.879,0.114
2165.909,0.106
2165.939,0.100
2165.969,0.097
2166.000,0.094
2166.030,0.092
2166.060,0.090
2166.090,0.089
2166.120,0.088
2166.150,0.087
2166.180,0.086
2166.210,0.085
2166.240,0.085
2166.271,0.084
2166.301,0.084
2166.331,0.084
2166.361,0.084
2166.391,0.083
2166.421,0.083
2166.451,0.083
2166.482,0.083
2166.512,0.083
2166.542,0.083
2166.572,0.082
2166.602,0.082
2166.632,0.082
2166.662,0.082
2166.693,0.082
2166.723,0.082
2166.753,0.082
2166.783,0.082
2166.813,0.082
2166.843,0.082
2166.873,0.082
2166.903,0.082
2166.934,0.082
2166.964,0.082
2166.994,0.082
2167.024,0.082
2167.054,0.082
2167.084,0.082
2167.114,0.082
2167.145,0.082
2167.175,0.082
2167.205,0.081
2167.235,0.081
2167.265,0.081
2167.295,0.081
2167.325,0.081
2167.355,0.081
2167.385,0.081
2167.416,0.081
2167.446,0.081
2167.476,0.081
2167.506,0.081
2167.536,0.081
2167.566,0.081
2167.596,0.081
2167.627,0.081
2167.657,0.081
2167.687,0.081
2167.717,0.081
2167.747,0.081
2167.777,0.081
2167.807,0.081
2167.838,0.081
2167.868,0.082
2167.898,0.082
2167.928,0.082
2167.958,0.082
2167.988,0.082
2168.018,0.082
2168.049,0.082
2168.079,0.082
2168.109,0.082
2168.139,0.083
2168.169,0.083
2168.199,0.084
2168.229,0.085
2168.259,0.086
2168.290,0.087
2168.320,0.088
2168.350,0.089
2168.380,0.089
2168.410,0.089
2168.440,0.089
2168.470,0.089
2168.500,0.088
2168.531,0.088
2168.561,0.088
2168.591,0.088
2168.621,0.088
2168.651,0.089
2168.681,0.090
2168.711,0.092
2168.741,0.094
2168.772,0.097
2168.802,0.101
2168.832,0.108
2168.862,0.117
2168.892,0.131
2168.922,0.150
2168.952,0.178
2168.983,0.215
2169.013,0.261
2169.043,0.318
2169.073,0.380
2169.103,0.441
2169.133,0.488
2169.163,0.508
2169.194,0.494
2169.224,0.450
2169.254,0.390
2169.284,0.327
2169.314,0.269
2169.344,0.220
2169.374,0.182
2169.404,0.153
2169.435,0.132
2169.465,0.118
2169.495,0.109
2169.525,0.102
2169.555,0.098
2169.585,0.095
2169.615,0.093
2169.646,0.091
2169.676,0.090
2169.706,0.089
2169.736,0.088
2169.766,0.087
2169.796,0.086
2169.826,0.086
2169.856,0.085
2169.886,0.085
2169.917,0.085
2169.947,0.084
2169.977,0.084
2170.007,0.084
2170.037,0.083
2170.067,0.083
2170.097,0.082
2170.128,0.082
2170.158,0.082
2170.188,0.082
2170.218,0.082
2170.248,0.082
2170.278,0.082
2170.308,0.082
2170.339,0.082
2170.369,0.082
2170.399,0.082
2170.429,0.082
2170.459,0.082
2170.489,0.082
2170.519,0.081
2170.550,0.081
2170.580,0.081
2170.610,0.081
2170.640,0.081
2170.670,0.081
2170.700,0.081
2170.730,0.081
2170.760,0.081
2170.791,0.081
2170.821,0.081
2170.851,0.081
2170.881,0.081
2170.911,0.081
2170.941,0.081
2170.971,0.081
2171.001,0.081
2171.031,0.081
2171.062,0.081
2171.092,0.082
2171.122,0.082
2171.152,0.083
2171.182,0.083
2171.212,0.084
2171.242,0.084
2171.273,0.084
2171.303,0.084
2171.333,0.084
2171.363,0.084
2171.393,0.084
2171.423,0.083
2171.453,0.083
2171.484,0.083
2171.514,0.083
2171.544,0.083
2171.574,0.083
2171.604,0.083
2171.634,0.083
2171.664,0.083
2171.695,0.083
2171.725,0.083
2171.755,0.083
2171.785,0.083
2171.815,0.083
2171.845,0.083
2171.875,0.083
2171.905,0.084
2171.936,0.084
2171.966,0.084
2171.996,0.084
2172.026,0.085
2172.056,0.085
2172.086,0.086
2172.116,0.086
2172.146,0.087
2172.177,0.088
2172.207,0.089
2172.237,0.090
2172.267,0.091
2172.297,0.093
2172.327,0.096
2172.357,0.100
2172.387,0.106
2172.418,0.115
2172.448,0.127
2172.478,0.146
2172.508,0.172
2172.538,0.206
2172.568,0.251
2172.598,0.306
2172.629,0.367
2172.659,0.429
2172.689,0.479
2172.719,0.504
2172.749,0.496
2172.779,0.457
2172.809,0.399
2172.840,0.336
2172.870,0.277
2172.900,0.226
2172.930,0.186
2172.960,0.156
2172.990,0.135
2173.020,0.120
2173.051,0.110
2173.081,0.103
2173.111,0.098
2173.141,0.095
2173.171,0.092
2173.201,0.091
2173.231,0.089
2173.261,0.088
2173.292,0.087
2173.322,0.087
2173.352,0.086
2173.382,0.085
2173.412,0.085
2173.442,0.084
2173.472,0.084
2173.502,0.084
2173.532,0.083
2173.563,0.083
2173.593,0.083
2173.623,0.082
2173.653,0.082
2173.683,0.082
2173.713,0.082
2173.743,0.082
2173.774,0.082
2173.804,0.082
2173.834,0.082
2173.864,0.082
2173.894,0.082
2173.924,0.082
2173.954,0.083
2173.985,0.083
2174.015,0.083
2174.045,0.084
2174.075,0.084
2174.105,0.084
2174.135,0.084
2174.165,0.084
2174.196,0.084
2174.226,0.083
2174.256,0.083
2174.286,0.082
2174.316,0.082
2174.346,0.081
2174.376,0.081
2174.406,0.081
2174.437,0.081
2174.467,0.081
2174.497,0.081
2174.527,0.081
2174.557,0.081
2174.587,0.081
2174.617,0.082
2174.647,0.082
2174.677,0.082
2174.708,0.082
2174.738,0.082
2174.768,0.082
2174.798,0.082
2174.828,0.082
2174.858,0.082
2174.888,0.081
2174.919,0.082
2174.949,0.082
2174.979,0.082
2175.009,0.082
2175.039,0.082
2175.069,0.082
2175.099,0.082
2175.130,0.082
2175.160,0.082
2175.190,0.082
2175.220,0.083
2175.250,0.083
2175.280,0.083
2175.310,0.083
2175.341,0.083
2175.371,0.083
2175.401,0.083
2175.431,0.084
2175.461,0.084
2175.491,0.084
2175.521,0.084
2175.552,0.084
2175.582,0.085
2175.612,0.085
2175.642,0.086
2175.672,0.087
2175.702,0.087
2175.732,0.088
2175.762,0.089
2175.792,0.091
2175.823,0.093
2175.853,0.096
2175.883,0.100
2175.913,0.105
2175.943,0.114
2175.973,0.126
2176.003,0.144
2176.033,0.170
2176.064,0.204
2176.094,0.248
2176.124,0.302
2176.154,0.362
2176.184,0.422
2176.214,0.470
2176.244,0.493
2176.275,0.484
2176.305,0.445
2176.335,0.389
2176.365,0.327
2176.395,0.270
2176.425,0.221
2176.455,0.182
2176.486,0.153
2176.516,0.132
2176.546,0.117
2176.576,0.108
2176.606,0.101
2176.636,0.097
2176.666,0.094
2176.697,0.092
2176.727,0.090
2176.757,0.089
2176.787,0.088
2176.817,0.088
2176.847,0.087
2176.877,0.087
2176.907,0.086
2176.938,0.086
2176.968,0.086
2176.998,0.085
2177.028,0.085
2177.058,0.085
2177.088,0.084
2177.118,0.084
2177.148,0.083
2177.178,0.083
2177.209,0.083
2177.239,0.083
2177.269,0.083
2177.299,0.082
2177.329,0.082
2177.359,0.082
2177.389,0.082
2177.420,0.082
2177.450,0.082
2177.480,0.082
2177.510,0.082
2177.540,0.082
2177.570,0.081
2177.600,0.081
2177.631,0.081
2177.661,0.081
2177.691,0.081
2177.721,0.082
2177.751,0.082
2177.781,0.082
2177.811,0.082
2177.842,0.082
2177.872,0.082
2177.902,0.082
2177.932,0.081
2177.962,0.081
2177.992,0.081
2178.022,0.081
2178.052,0.081
2178.083,0.081
2178.113,0.081
2178.143,0.081
2178.173,0.081
2178.203,0.082
2178.233,0.082
2178.263,0.082
2178.293,0.082
2178.323,0.082
2178.354,0.082
2178.384,0.082
2178.414,0.082
2178.444,0.082
2178.474,0.082
2178.504,0.082
2178.534,0.082
2178.565,0.082
2178.595,0.082
2178.625,0.082
2178.655,0.082
2178.685,0.082
2178.715,0.082
2178.745,0.082
2178.776,0.082
2178.806,0.082
2178.836,0.082
2178.866,0.083
2178.896,0.083
2178.926,0.083
2178.956,0.083
2178.987,0.083
2179.017,0.084
2179.047,0.084
2179.077,0.084
2179.107,0.085
2179.137,0.085
2179.167,0.086
2179.198,0.087
2179.228,0.088
2179.258,0.089
2179.288,0.091
2179.318,0.093
2179.348,0.095
2179.378,0.099
2179.408,0.105
2179.438,0.114
2179.469,0.127
2179.499,0.146
2179.529,0.172
2179.559,0.207
2179.589,0.252
2179.619,0.306
2179.649,0.365
2179.679,0.421
2179.710,0.463
2179.740,0.479
2179.770,0.463
2179.800,0.420
2179.830,0.364
2179.860,0.304
2179.890,0.250
2179.921,0.205
2179.951,0.169
2179.981,0.143
2180.011,0.125
2180.041,0.113
2180.071,0.104
2180.101,0.099
2180.132,0.095
2180.162,0.092
2180.192,0.091
2180.222,0.089
2180.252,0.088
2180.282,0.087
2180.312,0.086
2180.343,0.085
2180.373,0.085
2180.403,0.084
2180.433,0.084
2180.463,0.084
2180.493,0.084
2180.523,0.083
2180.553,0.083
2180.583,0.083
2180.614,0.082
2180.644,0.082
2180.674,0.082
2180.704,0.082
2180.734,0.082
2180.764,0.082
2180.794,0.082
2180.824,0.082
2180.855,0.082
2180.885,0.082
2180.915,0.082
2180.945,0.082
2180.975,0.082
2181.005,0.082
2181.035,0.082
2181.066,0.081
2181.096,0.081
2181.126,0.081
2181.156,0.081
2181.186,0.081
2181.216,0.081
2181.246,0.081
2181.277,0.081
2181.307,0.081
2181.337,0.081
2181.367,0.081
2181.397,0.081
2181.427,0.081
2181.457,0.081
2181.488,0.081
2181.518,0.081
2181.548,0.081
2181.578,0.081
2181.608,0.081
2181.638,0.081
2181.668,0.081
2181.698,0.081
2181.729,0.081
2181.759,0.081
2181.789,0.081
2181.819,0.081
2181.849,0.081
2181.879,0.081
2181.909,0.081
2181.939,0.081
2181.969,0.081
2182.000,0.081
2182.030,0.081
2182.060,0.081
2182.090,0.081
2182.120,0.082
2182.150,0.082
2182.180,0.082
2182.211,0.082
2182.241,0.082
2182.271,0.082
2182.301,0.083
2182.331,0.083
2182.361,0.083
2182.391,0.084
2182.422,0.084
2182.452,0.084
2182.482,0.084
2182.512,0.084
2182.542,0.084
2182.572,0.085
2182.602,0.085
2182.633,0.086
2182.663,0.087
2182.693,0.087
2182.723,0.088
2182.753,0.090
2182.783,0.092
2182.813,0.095
2182.844,0.099
2182.874,0.106
2182.904,0.116
2182.934,0.130
2182.964,0.151
2182.994,0.179
2183.024,0.217
2183.054,0.264
2183.084,0.318
2183.115,0.375
2183.145,0.424
2183.175,0.454
2183.205,0.455
2183.235,0.428
2183.265,0.380
2183.295,0.323
2183.325,0.268
2183.356,0.220
2183.386,0.181
2183.416,0.151
2183.446,0.130
2183.476,0.115
2183.506,0.106
2183.536,0.099
2183.567,0.095
2183.597,0.092
2183.627,0.090
2183.657,0.089
2183.687,0.088
2183.717,0.087
2183.747,0.086
2183.778,0.085
2183.808,0.084
2183.838,0.084
2183.868,0.084
2183.898,0.084
2183.928,0.083
2183.958,0.083
2183.989,0.083
2184.019,0.083
2184.049,0.083
2184.079,0.082
2184.109,0.082
2184.139,0.082
2184.169,0.082
2184.199,0.082
2184.229,0.082
2184.260,0.082
2184.290,0.082
2184.320,0.082
2184.350,0.082
2184.380,0.082
2184.410,0.082
2184.440,0.081
2184.470,0.081
2184.501,0.081
2184.531,0.081
2184.561,0.081
2184.591,0.081
2184.621,0.081
2184.651,0.081
2184.681,0.081
2184.712,0.081
2184.742,0.081
2184.772,0.081
2184.802,0.081
2184.832,0.081
2184.862,0.081
2184.892,0.081
2184.923,0.081
2184.953,0.081
2184.983,0.081
2185.013,0.081
2185.043,0.081
2185.073,0.081
2185.103,0.081
2185.134,0.082
2185.164,0.082
2185.194,0.081
2185.224,0.081
2185.254,0.081
2185.284,0.082
2185.314,0.082
2185.344,0.082
2185.375,0.082
2185.405,0.082
2185.435,0.081
2185.465,0.081
2185.495,0.082
2185.525,0.082
2185.555,0.082
2185.585,0.082
2185.615,0.082
2185.646,0.082
2185.676,0.082
2185.706,0.082
2185.736,0.082
2185.766,0.082
2185.796,0.082
2185.826,0.082
2185.857,0.083
2185.887,0.083
2185.917,0.083
2185.947,0.083
2185.977,0.083
2186.007,0.084
2186.037,0.085
2186.068,0.085
2186.098,0.086
2186.128,0.087
2186.158,0.088
2186.188,0.090
2186.218,0.092
2186.248,0.095
2186.279,0.101
2186.309,0.108
2186.339,0.120
2186.369,0.137
2186.399,0.161
2186.429,0.194
2186.459,0.236
2186.490,0.285
2186.520,0.338
2186.550,0.388
2186.580,0.423
2186.610,0.434
2186.640,0.417
2186.670,0.377
2186.700,0.326
2186.730,0.272
2186.760,0.224
2186.791,0.184
2186.821,0.153
2186.851,0.131
2186.881,0.115
2186.911,0.105
2186.941,0.099
2186.971,0.094
2187.002,0.092
2187.032,0.090
2187.062,0.088
2187.092,0.087
2187.122,0.086
2187.152,0.085
2187.182,0.085
2187.213,0.084
2187.243,0.084
2187.273,0.083
2187.303,0.083
2187.333,0.083
2187.363,0.083
2187.393,0.083
2187.424,0.083
2187.454,0.082
2187.484,0.082
2187.514,0.082
2187.544,0.082
2187.574,0.082
2187.604,0.082
2187.635,0.082
2187.665,0.082
2187.695,0.081
2187.725,0.081
2187.755,0.081
2187.785,0.081
2187.815,0.081
2187.845,0.081
2187.875,0.081
2187.906,0.081
2187.936,0.081
2187.966,0.081
2187.996,0.081
2188.026,0.081
2188.056,0.081
2188.086,0.081
2188.116,0.081
2188.147,0.081
2188.177,0.081
2188.207,0.081
2188.237,0.081
2188.267,0.081
2188.297,0.081
2188.327,0.081
2188.358,0.081
2188.388,0.081
2188.418,0.081
2188.448,0.081
2188.478,0.081
2188.508,0.081
2188.538,0.081
2188.569,0.081
2188.599,0.081
2188.629,0.081
2188.659,0.081
2188.689,0.081
2188.719,0.081
2188.749,0.081
2188.780,0.081
2188.810,0.081
2188.840,0.081
2188.870,0.081
2188.900,0.081
2188.930,0.081
2188.960,0.081
2188.990,0.082
2189.021,0.082
2189.051,0.082
2189.081,0.082
2189.111,0.082
2189.141,0.082
2189.171,0.082
2189.201,0.082
2189.231,0.082
2189.261,0.082
2189.292,0.082
2189.322,0.082
2189.352,0.083
2189.382,0.083
2189.412,0.084
2189.442,0.084
2189.472,0.085
2189.503,0.086
2189.533,0.087
2189.563,0.088
2189.593,0.090
2189.623,0.093
2189.653,0.097
2189.683,0.104
2189.714,0.114
2189.744,0.129
2189.774,0.150
2189.804,0.180
2189.834,0.218
2189.864,0.263
2189.894,0.312
2189.925,0.359
2189.955,0.394
2189.985,0.407
2190.015,0.394
2190.045,0.360
2190.075,0.313
2190.105,0.263
2190.135,0.217
2190.166,0.178
2190.196,0.148
2190.226,0.127
2190.256,0.112
2190.286,0.103
2190.316,0.097
2190.346,0.093
2190.376,0.090
2190.406,0.088
2190.437,0.087
2190.467,0.086
2190.497,0.085
2190.527,0.085
2190.557,0.084
2190.587,0.084
2190.617,0.083
2190.648,0.083
2190.678,0.082
2190.708,0.082
2190.738,0.082
2190.768,0.082
2190.798,0.082
2190.828,0.082
2190.859,0.082
2190.889,0.081
2190.919,0.081
2190.949,0.081
2190.979,0.081
2191.009,0.081
2191.039,0.081
2191.070,0.081
2191.100,0.081
2191.130,0.081
2191.160,0.081
2191.190,0.081
2191.220,0.081
2191.250,0.081
2191.281,0.081
2191.311,0.081
2191.341,0.081
2191.371,0.081
2191.401,0.081
2191.431,0.081
2191.461,0.081
2191.491,0.081
2191.521,0.081
2191.552,0.081
2191.582,0.081
2191.612,0.081
2191.642,0.081
2191.672,0.081
2191.702,0.081
2191.732,0.081
2191.762,0.081
2191.793,0.081
2191.823,0.081
2191.853,0.081
2191.883,0.081
2191.913,0.081
2191.943,0.081
2191.973,0.081
2192.004,0.081
2192.034,0.081
2192.064,0.081
2192.094,0.081
2192.124,0.081
2192.154,0.081
2192.184,0.081
2192.215,0.081
2192.245,0.081
2192.275,0.081
2192.305,0.081
2192.335,0.081
2192.365,0.081
2192.395,0.081
2192.426,0.081
2192.456,0.081
2192.486,0.081
2192.516,0.082
2192.546,0.082
2192.576,0.082
2192.606,0.082
2192.636,0.082
2192.667,0.082
2192.697,0.083
2192.727,0.083
2192.757,0.083
2192.787,0.084
2192.817,0.084
2192.847,0.085
2192.877,0.085
2192.907,0.087
2192.938,0.088
2192.968,0.091
2192.998,0.095
2193.028,0.101
2193.058,0.110
2193.088,0.124
2193.118,0.144
2193.149,0.172
2193.179,0.208
2193.209,0.251
2193.239,0.296
2193.269,0.338
2193.299,0.368
2193.329,0.377
2193.360,0.364
2193.390,0.331
2193.420,0.287
2193.450,0.241
2193.480,0.199
2193.510,0.164
2193.540,0.138
2193.571,0.119
2193.601,0.106
2193.631,0.098
2193.661,0.093
2193.691,0.090
2193.721,0.088
2193.751,0.087
2193.781,0.085
2193.812,0.085
2193.842,0.084
2193.872,0.084
2193.902,0.084
2193.932,0.083
2193.962,0.083
2193.992,0.082
2194.022,0.082
2194.053,0.082
2194.083,0.082
2194.113,0.082
2194.143,0.082
2194.173,0.082
2194.203,0.081
2194.233,0.081
2194.263,0.081
2194.294,0.081
2194.324,0.081
2194.354,0.081
2194.384,0.081
2194.414,0.081
2194.444,0.081
2194.474,0.081
2194.505,0.080
2194.535,0.080
2194.565,0.081
2194.595,0.081
2194.625,0.081
2194.655,0.080
2194.685,0.080
2194.716,0.080
2194.746,0.080
2194.776,0.080
2194.806,0.081
2194.836,0.081
2194.866,0.081
2194.896,0.081
2194.927,0.081
2194.957,0.080
2194.987,0.080
2195.017,0.080
2195.047,0.081
2195.077,0.081
2195.107,0.081
2195.137,0.081
2195.167,0.080
2195.198,0.080
2195.228,0.080
2195.258,0.080
2195.288,0.081
2195.318,0.081
2195.348,0.081
2195.378,0.081
2195.409,0.081
2195.439,0.081
2195.469,0.081
2195.499,0.081
2195.529,0.081
2195.559,0.081
2195.589,0.081
2195.619,0.081
2195.650,0.081
2195.680,0.081
2195.710,0.081
2195.740,0.081
2195.770,0.081
2195.800,0.081
2195.830,0.082
2195.861,0.082
2195.891,0.082
2195.921,0.081
2195.951,0.081
2195.981,0.082
2196.011,0.082
2196.041,0.082
2196.072,0.083
2196.102,0.083
2196.132,0.083
2196.162,0.084
2196.192,0.085
2196.222,0.086
2196.252,0.087
2196.282,0.090
2196.313,0.093
2196.343,0.099
2196.373,0.109
2196.403,0.123
2196.433,0.144
2196.463,0.172
2196.493,0.206
2196.523,0.247
2196.554,0.288
2196.584,0.323
2196.614,0.344
2196.644,0.345
2196.674,0.327
2196.704,0.293
2196.734,0.252
2196.764,0.211
2196.795,0.174
2196.825,0.145
2196.855,0.124
2196.885,0.109
2196.915,0.099
2196.945,0.093
2196.975,0.090
2197.006,0.087
2197.036,0.086
2197.066,0.085
2197.096,0.084
2197.126,0.084
2197.156,0.083
2197.186,0.083
2197.217,0.083
2197.247,0.082
2197.277,0.082
2197.307,0.082
2197.337,0.081
2197.367,0.081
2197.397,0.081
2197.427,0.081
2197.458,0.081
2197.488,0.081
2197.518,0.081
2197.548,0.081
2197.578,0.081
2197.608,0.081
2197.638,0.081
2197.668,0.081
2197.699,0.081
2197.729,0.081
2197.759,0.081
2197.789,0.081
2197.819,0.081
2197.849,0.081
2197.879,0.081
2197.910,0.081
2197.940,0.081
2197.970,0.081
2198.000,0.081
2198.030,0.081
2198.060,0.081
2198.090,0.081
2198.120,0.081
2198.151,0.081
2198.181,0.081
2198.211,0.080
2198.241,0.080
2198.271,0.080
2198.301,0.080
2198.331,0.080
2198.362,0.080
2198.392,0.080
2198.422,0.080
2198.452,0.080
2198.482,0.080
2198.512,0.080
2198.542,0.080
2198.573,0.080
2198.603,0.080
2198.633,0.080
2198.663,0.080
2198.693,0.080
2198.723,0.080
2198.753,0.080
2198.783,0.080
2198.813,0.080
2198.844,0.080
2198.874,0.081
2198.904,0.081
2198.934,0.081
2198.964,0.081
2198.994,0.081
2199.024,0.081
2199.055,0.081
2199.085,0.081
2199.115,0.081
2199.145,0.081
2199.175,0.081
2199.205,0.081
2199.235,0.081
2199.265,0.081
2199.296,0.082
2199.326,0.082
2199.356,0.082
2199.386,0.083
2199.416,0.083
2199.446,0.083
2199.476,0.084
2199.507,0.085
2199.537,0.086
2199.567,0.089
2199.597,0.093
2199.627,0.100
2199.657,0.110
2199.687,0.126
2199.718,0.149
2199.748,0.178
2199.778,0.212
2199.808,0.250
2199.838,0.284
2199.868,0.309
2199.898,0.319
2199.928,0.310
2199.958,0.284
2199.989,0.249
2200.019,0.212
2200.049,0.177
2200.079,0.147
2200.109,0.125
2200.139,0.109
2200.169,0.099
2200.200,0.092
2200.230,0.088
2200.260,0.086
2200.290,0.085
2200.320,0.084
2200.350,0.083
2200.380,0.083
2200.411,0.082
2200.441,0.082
2200.471,0.082
2200.501,0.081
2200.531,0.081
2200.561,0.081
2200.591,0.081
2200.621,0.081
2200.652,0.081
2200.682,0.081
2200.712,0.081
2200.742,0.081
2200.772,0.081
2200.802,0.081
2200.832,0.081
2200.863,0.081
2200.893,0.081
2200.923,0.081
2200.953,0.081
2200.983,0.080
2201.013,0.080
2201.043,0.080
2201.073,0.080
2201.104,0.080
2201.134,0.080
2201.164,0.080
2201.194,0.080
2201.224,0.080
2201.254,0.080
2201.284,0.080
2201.314,0.080
2201.345,0.080
2201.375,0.080
2201.405,0.080
2201.435,0.080
2201.465,0.080
2201.495,0.080
2201.525,0.080
2201.556,0.080
2201.586,0.080
2201.616,0.080
2201.646,0.080
2201.676,0.080
2201.706,0.080
2201.736,0.080
2201.767,0.080
2201.797,0.080
2201.827,0.080
2201.857,0.081
2201.887,0.081
2201.917,0.081
2201.947,0.081
2201.977,0.080
2202.008,0.080
2202.038,0.080
2202.068,0.081
2202.098,0.081
2202.128,0.081
2202.158,0.081
2202.188,0.080
2202.219,0.080
2202.249,0.080
2202.279,0.080
2202.309,0.080
2202.339,0.081
2202.369,0.081
2202.399,0.081
2202.429,0.080
2202.459,0.080
2202.490,0.080
2202.520,0.081
2202.550,0.081
2202.580,0.081
2202.610,0.082
2202.640,0.082
2202.670,0.082
2202.701,0.082
2202.731,0.083
2202.761,0.084
2202.791,0.086
2202.821,0.089
2202.851,0.095
2202.881,0.103
2202.912,0.116
2202.942,0.135
2202.972,0.159
2203.002,0.189
2203.032,0.222
2203.062,0.254
2203.092,0.278
2203.122,0.289
2203.153,0.284
2203.183,0.265
2203.213,0.235
2203.243,0.201
2203.273,0.169
2203.303,0.142
2203.333,0.121
2203.364,0.106
2203.394,0.097
2203.424,0.091
2203.454,0.087
2203.484,0.085
2203.514,0.084
2203.544,0.083
2203.574,0.083
2203.604,0.082
2203.635,0.082
2203.665,0.082
2203.695,0.081
2203.725,0.081
2203.755,0.081
2203.785,0.081
2203.815,0.081
2203.846,0.081
2203.876,0.081
2203.906,0.081
2203.936,0.081
2203.966,0.080
2203.996,0.080
2204.026,0.080
2204.057,0.080
2204.087,0.080
2204.117,0.080
2204.147,0.080
2204.177,0.080
2204.207,0.080
2204.237,0.080
2204.268,0.080
2204.298,0.080
2204.328,0.080
2204.358,0.080
2204.388,0.080
2204.418,0.080
2204.448,0.080
2204.478,0.080
2204.509,0.080
2204.539,0.080
2204.569,0.080
2204.599,0.080
2204.629,0.080
2204.659,0.080
2204.689,0.080
2204.719,0.080
2204.750,0.080
2204.780,0.080
2204.810,0.080
2204.840,0.080
2204.870,0.080
2204.900,0.080
2204.930,0.080
2204.960,0.080
2204.991,0.080
2205.021,0.080
2205.051,0.080
2205.081,0.080
2205.111,0.080
2205.141,0.080
2205.171,0.080
2205.202,0.080
2205.232,0.080
2205.262,0.080
2205.292,0.080
2205.322,0.080
2205.352,0.080
2205.382,0.080
2205.413,0.080
2205.443,0.080
2205.473,0.080
2205.503,0.080
2205.533,0.080
2205.563,0.080
2205.593,0.080
2205.623,0.080
2205.654,0.080
2205.684,0.080
2205.714,0.080
2205.744,0.080
2205.774,0.081
2205.804,0.081
2205.834,0.081
2205.865,0.081
2205.895,0.082
2205.925,0.082
2205.955,0.083
2205.985,0.085
2206.015,0.087
2206.045,0.092
2206.075,0.099
2206.105,0.111
2206.136,0.127
2206.166,0.149
2206.196,0.176
2206.226,0.205
2206.256,0.233
2206.286,0.253
2206.316,0.263
2206.347,0.257
2206.377,0.240
2206.407,0.213
2206.437,0.184
2206.467,0.156
2206.497,0.132
2206.527,0.114
2206.558,0.101
2206.588,0.093
2206.618,0.088
2206.648,0.085
2206.678,0.084
2206.708,0.083
2206.738,0.082
2206.769,0.082
2206.799,0.082
2206.829,0.081
2206.859,0.081
2206.889,0.081
2206.919,0.081
2206.949,0.081
2206.979,0.081
2207.010,0.081
2207.040,0.081
2207.070,0.081
2207.100,0.081
2207.130,0.080
2207.160,0.080
2207.190,0.080
2207.220,0.080
2207.250,0.080
2207.281,0.080
2207.311,0.080
2207.341,0.080
2207.371,0.080
2207.401,0.080
2207.431,0.080
2207.461,0.080
2207.492,0.080
2207.522,0.080
2207.552,0.080
2207.582,0.080
2207.612,0.080
2207.642,0.080
2207.672,0.080
2207.703,0.080
2207.733,0.080
2207.763,0.080
2207.793,0.080
2207.823,0.080
2207.853,0.080
2207.883,0.080
2207.914,0.080
2207.944,0.080
2207.974,0.080
2208.004,0.080
2208.034,0.080
2208.064,0.080
2208.094,0.080
2208.124,0.080
2208.155,0.080
2208.185,0.080
2208.215,0.080
2208.245,0.080
2208.275,0.080
2208.305,0.080
2208.335,0.080
2208.365,0.080
2208.396,0.080
2208.426,0.080
2208.456,0.080
2208.486,0.080
2208.516,0.080
2208.546,0.080
2208.576,0.080
2208.606,0.080
2208.637,0.080
2208.667,0.080
2208.697,0.080
2208.727,0.080
2208.757,0.080
2208.787,0.080
2208.817,0.080
2208.848,0.080
2208.878,0.080
2208.908,0.081
2208.938,0.081
2208.968,0.081
2208.998,0.081
2209.028,0.081
2209.059,0.081
2209.089,0.082
2209.119,0.083
2209.149,0.084
2209.179,0.086
2209.209,0.091
2209.239,0.098
2209.270,0.109
2209.300,0.125
2209.330,0.146
2209.360,0.170
2209.390,0.195
2209.420,0.217
2209.450,0.232
2209.480,0.237
2209.510,0.229
2209.541,0.211
2209.571,0.187
2209.601,0.161
2209.631,0.138
2209.661,0.118
2209.691,0.104
2209.721,0.094
2209.751,0.088
2209.782,0.085
2209.812,0.083
2209.842,0.082
2209.872,0.082
2209.902,0.081
2209.932,0.081
2209.962,0.081
2209.993,0.081
2210.023,0.081
2210.053,0.081
2210.083,0.081
2210.113,0.080
2210.143,0.080
2210.173,0.080
2210.204,0.080
2210.234,0.080
2210.264,0.080
2210.294,0.080
2210.324,0.080
2210.354,0.080
2210.384,0.080
2210.415,0.080
2210.445,0.080
2210.475,0.080
2210.505,0.080
2210.535,0.080
2210.565,0.080
2210.595,0.080
2210.625,0.080
2210.656,0.080
2210.686,0.080
2210.716,0.080
2210.746,0.080
2210.776,0.080
2210.806,0.080
2210.836,0.080
2210.866,0.080
2210.896,0.080
2210.927,0.080
2210.957,0.080
2210.987,0.080
2211.017,0.080
2211.047,0.080
2211.077,0.080
2211.107,0.080
2211.138,0.080
2211.168,0.080
2211.198,0.080
2211.228,0.080
2211.258,0.080
2211.288,0.080
2211.318,0.080
2211.349,0.080
2211.379,0.080
2211.409,0.080
2211.439,0.080
2211.469,0.080
2211.499,0.080
2211.529,0.080
2211.560,0.080
2211.590,0.080
2211.620,0.080
2211.650,0.080
2211.680,0.080
2211.710,0.080
2211.740,0.080
2211.771,0.080
2211.801,0.080
2211.831,0.080
2211.861,0.080
2211.891,0.080
2211.921,0.080
2211.951,0.080
2211.981,0.080
2212.011,0.080
2212.042,0.080
2212.072,0.080
2212.102,0.080
2212.132,0.080
2212.162,0.081
2212.192,0.081
2212.222,0.081
2212.252,0.082
2212.283,0.083
2212.313,0.086
2212.343,0.091
2212.373,0.099
2212.403,0.111
2212.433,0.127
2212.463,0.147
2212.494,0.168
2212.524,0.189
2212.554,0.205
2212.584,0.213
2212.614,0.211
2212.644,0.199
2212.674,0.180
2212.705,0.158
2212.735,0.137
2212.765,0.118
2212.795,0.104
2212.825,0.094
2212.855,0.088
2212.885,0.084
2212.916,0.083
2212.946,0.082
2212.976,0.081
2213.006,0.081
2213.036,0.080
2213.066,0.080
2213.096,0.080
2213.126,0.080
2213.156,0.080
2213.187,0.080
2213.217,0.080
2213.247,0.080
2213.277,0.080
2213.307,0.080
2213.337,0.080
2213.367,0.080
2213.397,0.080
2213.428,0.080
2213.458,0.080
2213.488,0.080
2213.518,0.080
2213.548,0.080
2213.578,0.080
2213.608,0.080
2213.639,0.080
2213.669,0.080
2213.699,0.080
2213.729,0.080
2213.759,0.080
2213.789,0.080
2213.819,0.080
2213.850,0.080
2213.880,0.080
2213.910,0.080
2213.940,0.080
2213.970,0.080
2214.000,0.080
2214.030,0.080
2214.061,0.080
2214.091,0.080
2214.121,0.080
2214.151,0.080
2214.181,0.080
2214.211,0.080
2214.241,0.080
2214.271,0.080
2214.302,0.080
2214.332,0.080
2214.362,0.080
2214.392,0.080
2214.422,0.080
2214.452,0.080
2214.482,0.080
2214.512,0.080
2214.542,0.080
2214.573,0.080
2214.603,0.080
2214.633,0.080
2214.663,0.080
2214.693,0.080
2214.723,0.080
2214.753,0.079
2214.784,0.080
2214.814,0.080
2214.844,0.080
2214.874,0.080
2214.904,0.079
2214.934,0.079
2214.964,0.079
2214.995,0.079
2215.025,0.080
2215.055,0.080
2215.085,0.080
2215.115,0.080
2215.145,0.080
2215.175,0.080
2215.206,0.080
2215.236,0.080
2215.266,0.081
2215.296,0.081
2215.326,0.081
2215.356,0.082
2215.386,0.084
2215.417,0.088
2215.447,0.094
2215.477,0.103
2215.507,0.116
2215.537,0.133
2215.567,0.151
2215.597,0.169
2215.627,0.183
2215.657,0.191
2215.688,0.191
2215.718,0.183
2215.748,0.168
2215.778,0.150
2215.808,0.131
2215.838,0.115
2215.868,0.102
2215.898,0.092
2215.929,0.087
2215.959,0.083
2215.989,0.082
2216.019,0.081
2216.049,0.081
2216.079,0.080
2216.109,0.080
2216.140,0.080
2216.170,0.080
2216.200,0.081
2216.230,0.081
2216.260,0.081
2216.290,0.080
2216.320,0.080
2216.351,0.080
2216.381,0.080
2216.411,0.080
2216.441,0.080
2216.471,0.080
2216.501,0.080
2216.531,0.080
2216.562,0.080
2216.592,0.080
2216.622,0.080
2216.652,0.080
2216.682,0.080
2216.712,0.080
2216.742,0.080
2216.772,0.080
2216.802,0.079
2216.833,0.079
2216.863,0.079
2216.893,0.080
2216.923,0.080
2216.953,0.080
2216.983,0.080
2217.013,0.080
2217.043,0.080
2217.074,0.080
2217.104,0.080
2217.134,0.080
2217.164,0.080
2217.194,0.080
2217.224,0.080
2217.254,0.080
2217.285,0.080
2217.315,0.079
2217.345,0.080
2217.375,0.080
2217.405,0.080
2217.435,0.080
2217.465,0.080
2217.496,0.080
2217.526,0.080
2217.556,0.080
2217.586,0.080
2217.616,0.080
2217.646,0.080
2217.676,0.080
2217.707,0.080
2217.737,0.080
2217.767,0.080
2217.797,0.079
2217.827,0.079
2217.857,0.079
2217.887,0.080
2217.917,0.080
2217.948,0.080
2217.978,0.080
2218.008,0.080
2218.038,0.080
2218.068,0.080
2218.098,0.080
2218.128,0.080
2218.158,0.080
2218.188,0.080
2218.219,0.080
2218.249,0.080
2218.279,0.080
2218.309,0.080
2218.339,0.080
2218.369,0.081
2218.399,0.082
2218.430,0.083
2218.460,0.086
2218.490,0.092
2218.520,0.100
2218.550,0.111
2218.580,0.125
2218.610,0.140
2218.641,0.155
2218.671,0.167
2218.701,0.173
2218.731,0.172
2218.761,0.165
2218.791,0.152
2218.821,0.137
2218.852,0.121
2218.882,0.107
2218.912,0.097
2218.942,0.089
2218.972,0.085
2219.002,0.082
2219.032,0.081
2219.063,0.081
2219.093,0.080
2219.123,0.080
2219.153,0.080
2219.183,0.080
2219.213,0.080
2219.243,0.080
2219.273,0.080
2219.303,0.080
2219.333,0.080
2219.364,0.080
2219.394,0.080
2219.424,0.080
2219.454,0.080
2219.484,0.080
2219.514,0.080
2219.544,0.080
2219.575,0.080
2219.605,0.079
2219.635,0.079
2219.665,0.080
2219.695,0.080
2219.725,0.080
2219.755,0.080
2219.786,0.080
2219.816,0.080
2219.846,0.080
2219.876,0.080
2219.906,0.080
2219.936,0.080
2219.966,0.080
2219.997,0.080
2220.027,0.080
2220.057,0.080
2220.087,0.080
2220.117,0.080
2220.147,0.079
2220.177,0.080
2220.208,0.080
2220.238,0.080
2220.268,0.080
2220.298,0.080
2220.328,0.080
2220.358,0.080
2220.388,0.080
2220.418,0.080
2220.448,0.080
2220.479,0.080
2220.509,0.080
2220.539,0.080
2220.569,0.080
2220.599,0.080
2220.629,0.080
2220.659,0.080
2220.689,0.080
2220.720,0.080
2220.750,0.080
2220.780,0.080
2220.810,0.080
2220.840,0.080
2220.870,0.080
2220.900,0.080
2220.931,0.080
2220.961,0.080
2220.991,0.080
2221.021,0.080
2221.051,0.080
2221.081,0.080
2221.111,0.080
2221.142,0.080
2221.172,0.080
2221.202,0.080
2221.232,0.080
2221.262,0.080
2221.292,0.080
2221.322,0.080
2221.353,0.080
2221.383,0.080
2221.413,0.081
2221.443,0.083
2221.473,0.086
2221.503,0.091
2221.533,0.099
2221.563,0.109
2221.594,0.121
2221.624,0.134
2221.654,0.146
2221.684,0.154
2221.714,0.157
2221.744,0.155
2221.774,0.147
2221.804,0.135
2221.834,0.122
2221.865,0.109
2221.895,0.099
2221.925,0.091
2221.955,0.086
2221.985,0.083
2222.015,0.081
2222.045,0.080
2222.076,0.080
2222.106,0.080
2222.136,0.080
2222.166,0.080
2222.196,0.080
2222.226,0.080
2222.256,0.080
2222.287,0.080
2222.317,0.080
2222.347,0.079
2222.377,0.079
2222.407,0.080
2222.437,0.080
2222.467,0.080
2222.498,0.080
2222.528,0.080
2222.558,0.080
2222.588,0.080
2222.618,0.080
2222.648,0.080
2222.678,0.080
2222.708,0.080
2222.739,0.080
2222.769,0.080
2222.799,0.080
2222.829,0.080
2222.859,0.080
2222.889,0.080
2222.919,0.080
2222.949,0.080
2222.979,0.080
2223.010,0.080
2223.040,0.080
2223.070,0.079
2223.100,0.079
2223.130,0.079
2223.160,0.080
2223.190,0.080
2223.221,0.080
2223.251,0.080
2223.281,0.080
2223.311,0.079
2223.341,0.079
2223.371,0.080
2223.401,0.080
2223.432,0.080
2223.462,0.080
2223.492,0.080
2223.522,0.080
2223.552,0.080
2223.582,0.080
2223.612,0.080
2223.643,0.080
2223.673,0.080
2223.703,0.080
2223.733,0.080
2223.763,0.080
2223.793,0.080
2223.823,0.080
2223.854,0.080
2223.884,0.080
2223.914,0.080
2223.944,0.080
2223.974,0.080
2224.004,0.080
2224.034,0.080
2224.064,0.080
2224.094,0.080
2224.125,0.080
2224.155,0.080
2224.185,0.080
2224.215,0.080
2224.245,0.080
2224.275,0.080
2224.305,0.080
2224.335,0.080
2224.366,0.080
2224.396,0.081
2224.426,0.083
2224.456,0.087
2224.486,0.092
2224.516,0.100
2224.546,0.109
2224.577,0.120
2224.607,0.130
2224.637,0.138
2224.667,0.143
2224.697,0.142
2224.727,0.137
2224.757,0.129
2224.788,0.118
2224.818,0.108
2224.848,0.098
2224.878,0.091
2224.908,0.086
2224.938,0.083
2224.968,0.081
2224.999,0.080
2225.029,0.080
2225.059,0.080
2225.089,0.080
2225.119,0.080
2225.149,0.080
2225.179,0.080
2225.209,0.080
2225.240,0.080
2225.270,0.080
2225.300,0.080
2225.330,0.080
2225.360,0.080
2225.390,0.080
2225.420,0.080
2225.450,0.080
2225.480,0.080
2225.511,0.080
2225.541,0.080
2225.571,0.080
2225.601,0.080
2225.631,0.080
2225.661,0.080
2225.691,0.080
2225.722,0.080
2225.752,0.080
2225.782,0.080
2225.812,0.080
2225.842,0.080
2225.872,0.080
2225.902,0.080
2225.933,0.080
2225.963,0.080
2225.993,0.080
2226.023,0.080
2226.053,0.080
2226.083,0.080
2226.113,0.080
2226.144,0.080
2226.174,0.080
2226.204,0.080
2226.234,0.080
2226.264,0.080
2226.294,0.080
2226.324,0.080
2226.354,0.080
2226.385,0.080
2226.415,0.080
2226.445,0.080
2226.475,0.080
2226.505,0.080
2226.535,0.080
2226.565,0.080
2226.595,0.080
2226.625,0.080
2226.656,0.080
2226.686,0.080
2226.716,0.080
2226.746,0.080
2226.776,0.080
2226.806,0.080
2226.836,0.080
2226.867,0.080
2226.897,0.080
2226.927,0.080
2226.957,0.080
2226.987,0.080
2227.017,0.080
2227.047,0.080
2227.078,0.080
2227.108,0.080
2227.138,0.080
2227.168,0.079
2227.198,0.080
2227.228,0.080
2227.258,0.080
2227.289,0.080
2227.319,0.081
2227.349,0.083
2227.379,0.085
2227.409,0.089
2227.439,0.095
2227.469,0.103
2227.500,0.111
2227.530,0.119
2227.560,0.126
2227.590,0.130
2227.620,0.130
2227.650,0.126
2227.680,0.120
2227.710,0.111
2227.740,0.103
2227.771,0.095
2227.801,0.089
2227.831,0.085
2227.861,0.082
2227.891,0.080
2227.921,0.080
2227.951,0.080
2227.981,0.080
2228.012,0.080
2228.042,0.080
2228.072,0.080
2228.102,0.080
2228.132,0.080
2228.162,0.080
2228.192,0.080
2228.223,0.080
2228.253,0.080
2228.283,0.080
2228.313,0.080
2228.343,0.080
2228.373,0.080
2228.403,0.080
2228.434,0.079
2228.464,0.079
2228.494,0.079
2228.524,0.079
2228.554,0.079
2228.584,0.080
2228.614,0.080
2228.645,0.080
2228.675,0.080
2228.705,0.080
2228.735,0.080
2228.765,0.080
2228.795,0.080
2228.825,0.080
2228.855,0.080
2228.885,0.080
2228.916,0.080
2228.946,0.080
2228.976,0.080
2229.006,0.080
2229.036,0.080
2229.066,0.080
2229.096,0.080
2229.126,0.080
2229.157,0.080
2229.187,0.080
2229.217,0.080
2229.247,0.080
2229.277,0.080
2229.307,0.080
2229.337,0.080
2229.368,0.080
2229.398,0.080
2229.428,0.079
2229.458,0.079
2229.488,0.080
2229.518,0.080
2229.548,0.080
2229.579,0.080
2229.609,0.080
2229.639,0.080
2229.669,0.080
2229.699,0.080
2229.729,0.080
2229.759,0.080
2229.790,0.080
2229.820,0.080
2229.850,0.080
2229.880,0.080
2229.910,0.080
2229.940,0.080
2229.970,0.080
2230.000,0.080
2230.031,0.079
2230.061,0.079
2230.091,0.079
2230.121,0.079
2230.151,0.079
2230.181,0.080
2230.211,0.080
2230.241,0.082
2230.272,0.084
2230.302,0.088
2230.332,0.093
2230.362,0.099
2230.392,0.106
2230.422,0.112
2230.452,0.117
2230.482,0.120
2230.513,0.120
2230.543,0.116
2230.573,0.111
2230.603,0.104
2230.633,0.097
2230.663,0.091
2230.693,0.086
2230.724,0.083
2230.754,0.081
2230.784,0.080
2230.814,0.080
2230.844,0.080
2230.874,0.080
2230.904,0.080
2230.935,0.080
2230.965,0.080
2230.995,0.080
2231.025,0.080
2231.055,0.080
2231.085,0.080
2231.115,0.079
2231.146,0.079
2231.176,0.079
2231.206,0.080
2231.236,0.080
2231.266,0.080
2231.296,0.080
2231.326,0.080
2231.356,0.080
2231.386,0.080
2231.417,0.080
2231.447,0.080
2231.477,0.080
2231.507,0.080
2231.537,0.080
2231.567,0.080
2231.597,0.080
2231.628,0.080
2231.658,0.080
2231.688,0.080
2231.718,0.080
2231.748,0.080
2231.778,0.080
2231.808,0.080
2231.838,0.080
2231.869,0.080
2231.899,0.080
2231.929,0.080
2231.959,0.080
2231.989,0.080
2232.019,0.080
2232.049,0.080
2232.080,0.080
2232.110,0.080
2232.140,0.080
2232.170,0.080
2232.200,0.080
2232.230,0.080
2232.260,0.080
2232.291,0.080
2232.321,0.080
2232.351,0.079
2232.381,0.079
2232.411,0.080
2232.441,0.080
2232.471,0.080
2232.501,0.080
2232.531,0.080
2232.562,0.080
2232.592,0.080
2232.622,0.080
2232.652,0.080
2232.682,0.080
2232.712,0.080
2232.742,0.080
2232.773,0.080
2232.803,0.080
2232.833,0.080
2232.863,0.080
2232.893,0.080
2232.923,0.080
2232.953,0.080
2232.983,0.080
2233.014,0.080
2233.044,0.080
2233.074,0.081
2233.104,0.082
2233.134,0.084
2233.164,0.087
2233.194,0.092
2233.225,0.097
2233.255,0.102
2233.285,0.106
2233.315,0.109
2233.345,0.110
2233.375,0.109
2233.405,0.105
2233.436,0.101
2233.466,0.095
2233.496,0.090
2233.526,0.086
2233.556,0.083
2233.586,0.081
2233.616,0.081
2233.646,0.080
2233.677,0.080
2233.707,0.080
2233.737,0.080
2233.767,0.080
2233.797,0.080
2233.827,0.080
2233.857,0.080
2233.887,0.080
2233.918,0.080
2233.948,0.080
2233.978,0.080
2234.008,0.080
2234.038,0.079
2234.068,0.080
2234.098,0.080
2234.129,0.080
2234.159,0.080
2234.189,0.080
2234.219,0.080
2234.249,0.080
2234.279,0.080
2234.309,0.080
2234.339,0.080
2234.370,0.080
2234.400,0.080
2234.430,0.080
2234.460,0.079
2234.490,0.079
2234.520,0.079
2234.550,0.080
2234.581,0.080
2234.611,0.080
2234.641,0.080
2234.671,0.080
2234.701,0.080
2234.731,0.080
2234.761,0.080
2234.792,0.080
2234.822,0.080
2234.852,0.080
2234.882,0.080
2234.912,0.080
2234.942,0.079
2234.972,0.079
2235.002,0.079
2235.032,0.079
2235.063,0.079
2235.093,0.080
2235.123,0.080
2235.153,0.080
2235.183,0.080
2235.213,0.079
2235.243,0.079
2235.274,0.080
2235.304,0.080
2235.334,0.080
2235.364,0.080
2235.394,0.079
2235.424,0.079
2235.454,0.079
2235.484,0.079
2235.515,0.079
2235.545,0.080
2235.575,0.080
2235.605,0.080
2235.635,0.080
2235.665,0.080
2235.695,0.080
2235.726,0.080
2235.756,0.080
2235.786,0.080
2235.816,0.080
2235.846,0.080
2235.876,0.080
2235.906,0.081
2235.937,0.082
2235.967,0.084
2235.997,0.088
2236.027,0.091
2236.057,0.095
2236.087,0.099
2236.117,0.101
2236.147,0.102
2236.177,0.102
2236.208,0.099
2236.238,0.096
2236.268,0.092
2236.298,0.088
2236.328,0.085
2236.358,0.083
2236.388,0.081
2236.419,0.080
2236.449,0.080
2236.479,0.079
2236.509,0.079
2236.539,0.079
2236.569,0.079
2236.599,0.079
2236.630,0.079
2236.660,0.079
2236.690,0.080
2236.720,0.080
2236.750,0.080
2236.780,0.079
2236.810,0.079
2236.840,0.079
2236.871,0.079
2236.901,0.079
2236.931,0.079
2236.961,0.079
2236.991,0.079
2237.021,0.079
2237.051,0.079
2237.082,0.079
2237.112,0.079
2237.142,0.080
2237.172,0.080
2237.202,0.080
2237.232,0.080
2237.262,0.080
2237.292,0.080
2237.323,0.080
2237.353,0.080
2237.383,0.080
2237.413,0.080
2237.443,0.080
2237.473,0.080
2237.503,0.080
2237.533,0.080
2237.564,0.080
2237.594,0.080
2237.624,0.080
2237.654,0.080
2237.684,0.080
2237.714,0.080
2237.744,0.080
2237.775,0.080
2237.805,0.080
2237.835,0.080
2237.865,0.080
2237.895,0.080
2237.925,0.080
2237.955,0.080
2237.986,0.080
2238.016,0.080
2238.046,0.080
2238.076,0.080
2238.106,0.080
2238.136,0.080
2238.166,0.080
2238.196,0.080
2238.227,0.080
2238.257,0.080
2238.287,0.080
2238.317,0.080
2238.347,0.080
2238.377,0.080
2238.407,0.080
2238.438,0.080
2238.468,0.080
2238.498,0.080
2238.528,0.080
2238.558,0.080
2238.588,0.080
2238.618,0.080
2238.648,0.080
2238.678,0.081
2238.709,0.082
2238.739,0.084
2238.769,0.086
2238.799,0.088
2238.829,0.091
2238.859,0.093
2238.889,0.095
2238.920,0.095
2238.950,0.095
2238.980,0.093
2239.010,0.091
2239.040,0.088
2239.070,0.085
2239.100,0.083
2239.131,0.082
2239.161,0.081
2239.191,0.080
2239.221,0.080
2239.251,0.080
2239.281,0.080
2239.311,0.080
2239.341,0.080
2239.372,0.080
2239.402,0.080
2239.432,0.080
2239.462,0.080
2239.492,0.080
2239.522,0.080
2239.552,0.080
2239.583,0.080
2239.613,0.080
2239.643,0.080
2239.673,0.080
2239.703,0.080
2239.733,0.080
2239.763,0.080
2239.793,0.080
2239.823,0.080
2239.854,0.080
2239.884,0.080
2239.914,0.080
2239.944,0.080
2239.974,0.080
2240.004,0.080
2240.034,0.080
2240.065,0.080
2240.095,0.080
2240.125,0.080
2240.155,0.080
2240.185,0.080
2240.215,0.080
2240.245,0.079
2240.276,0.079
2240.306,0.079
2240.336,0.079
2240.366,0.080
2240.396,0.080
2240.426,0.080
2240.456,0.080
2240.487,0.080
2240.517,0.080
2240.547,0.080
2240.577,0.080
2240.607,0.080
2240.637,0.080
2240.667,0.080
2240.697,0.080
2240.728,0.080
2240.758,0.080
2240.788,0.080
2240.818,0.080
2240.848,0.080
2240.878,0.080
2240.908,0.079
2240.938,0.079
2240.969,0.079
2240.999,0.079
2241.029,0.079
2241.059,0.079
2241.089,0.079
2241.119,0.079
2241.149,0.079
2241.179,0.079
2241.210,0.079
2241.240,0.079
2241.270,0.079
2241.300,0.079
2241.330,0.080
2241.360,0.080
2241.390,0.080
2241.421,0.080
2241.451,0.081
2241.481,0.082
2241.511,0.084
2241.541,0.086
2241.571,0.087
2241.601,0.089
2241.632,0.090
2241.662,0.090
2241.692,0.089
2241.722,0.088
2241.752,0.086
2241.782,0.085
2241.812,0.083
2241.842,0.082
2241.873,0.081
2241.903,0.080
2241.933,0.080
2241.963,0.080
2241.993,0.080
2242.023,0.080
2242.053,0.080
2242.083,0.080
2242.114,0.080
2242.144,0.080
2242.174,0.080
2242.204,0.080
2242.234,0.080
2242.264,0.080
2242.294,0.080
2242.324,0.080
2242.355,0.080
2242.385,0.080
2242.415,0.080
2242.445,0.080
2242.475,0.080
2242.505,0.080
2242.535,0.080
2242.566,0.080
2242.596,0.080
2242.626,0.080
2242.656,0.080
2242.686,0.080
2242.716,0.080
2242.746,0.080
2242.777,0.080
2242.807,0.080
2242.837,0.080
2242.867,0.080
2242.897,0.079
2242.927,0.079
2242.957,0.079
2242.988,0.079
2243.018,0.079
2243.048,0.079
2243.078,0.079
2243.108,0.079
2243.138,0.079
2243.168,0.080
2243.198,0.080
2243.229,0.080
2243.259,0.080
2243.289,0.080
2243.319,0.080
2243.349,0.080
2243.379,0.079
2243.409,0.079
2243.439,0.079
2243.469,0.079
2243.500,0.079
2243.530,0.079
2243.560,0.079
2243.590,0.079
2243.620,0.079
2243.650,0.079
2243.680,0.079
2243.711,0.079
2243.741,0.079
2243.771,0.079
2243.801,0.079
2243.831,0.080
2243.861,0.080
2243.891,0.080
2243.922,0.080
2243.952,0.080
2243.982,0.080
2244.012,0.080
2244.042,0.080
2244.072,0.080
2244.102,0.080
2244.133,0.081
2244.163,0.081
2244.193,0.082
2244.223,0.083
2244.253,0.084
2244.283,0.085
2244.313,0.086
2244.344,0.086
2244.374,0.086
2244.404,0.085
2244.434,0.084
2244.464,0.083
2244.494,0.082
2244.524,0.081
2244.554,0.080
2244.584,0.080
2244.615,0.080
2244.645,0.080
2244.675,0.080
2244.705,0.080
2244.735,0.080
2244.765,0.080
2244.795,0.080
2244.825,0.080
2244.856,0.080
2244.886,0.080
2244.916,0.080
2244.946,0.080
2244.976,0.080
2245.006,0.080
2245.036,0.080
2245.067,0.080
2245.097,0.080
2245.127,0.080
2245.157,0.080
2245.187,0.080
2245.217,0.080
2245.247,0.080
2245.278,0.080
2245.308,0.080
2245.338,0.080
2245.368,0.080
2245.398,0.080
2245.428,0.080
2245.458,0.079
2245.489,0.079
2245.519,0.079
2245.549,0.079
2245.579,0.079
2245.609,0.079
2245.639,0.079
2245.669,0.079
2245.699,0.079
2245.729,0.079
2245.760,0.079
2245.790,0.080
2245.820,0.080
2245.850,0.080
2245.880,0.080
2245.910,0.080
2245.940,0.080
2245.970,0.080
2246.001,0.080
2246.031,0.080
2246.061,0.080
2246.091,0.080
2246.121,0.080
2246.151,0.080
2246.181,0.080
2246.212,0.080
2246.242,0.080
2246.272,0.080
2246.302,0.080
2246.332,0.080
2246.362,0.080
2246.392,0.080
2246.423,0.080
2246.453,0.080
2246.483,0.080
2246.513,0.079
2246.543,0.079
2246.573,0.079
2246.603,0.079
2246.634,0.079
2246.664,0.080
2246.694,0.080
2246.724,0.080
2246.754,0.080
2246.784,0.080
2246.814,0.080
2246.844,0.081
2246.875,0.082
2246.905,0.082
2246.935,0.083
2246.965,0.083
2246.995,0.084
2247.025,0.083
2247.055,0.083
2247.085,0.083
2247.115,0.082
2247.146,0.081
2247.176,0.081
2247.206,0.080
2247.236,0.080
2247.266,0.080
2247.296,0.080
2247.326,0.080
2247.357,0.080
2247.387,0.080
2247.417,0.080
2247.447,0.079
2247.477,0.079
2247.507,0.079
2247.537,0.079
2247.568,0.079
2247.598,0.079
2247.628,0.079
2247.658,0.079
2247.688,0.079
2247.718,0.079
2247.748,0.079
2247.779,0.079
2247.809,0.079
2247.839,0.079
2247.869,0.079
2247.899,0.079
2247.929,0.079
2247.959,0.080
2247.990,0.080
2248.020,0.080
2248.050,0.080
2248.080,0.080
2248.110,0.080
2248.140,0.080
2248.170,0.080
2248.200,0.080
2248.230,0.080
2248.260,0.080
2248.291,0.080
2248.321,0.080
2248.351,0.080
2248.381,0.080
2248.411,0.080
2248.441,0.080
2248.471,0.080
2248.502,0.080
2248.532,0.080
2248.562,0.080
2248.592,0.080
2248.622,0.080
2248.652,0.079
2248.682,0.079
2248.713,0.079
2248.743,0.079
2248.773,0.079
2248.803,0.079
2248.833,0.079
2248.863,0.079
2248.893,0.079
2248.924,0.079
2248.954,0.079
2248.984,0.079
2249.014,0.080
2249.044,0.080
2249.074,0.080
2249.104,0.080
2249.135,0.080
2249.165,0.080
2249.195,0.080
2249.225,0.080
2249.255,0.080
2249.285,0.080
2249.315,0.080
2249.345,0.080
2249.375,0.080
2249.406,0.080
2249.436,0.080
2249.466,0.080
2249.496,0.080
2249.526,0.081
2249.556,0.081
2249.586,0.081
2249.616,0.081
2249.647,0.081
2249.677,0.081
2249.707,0.080
2249.737,0.080
2249.767,0.080
2249.797,0.080
2249.827,0.079
2249.858,0.079
2249.888,0.079
2249.918,0.080
2249.948,0.080
2249.978,0.080
2250.008,0.080
2250.038,0.080
2250.069,0.080
2250.099,0.080
2250.129,0.080
2250.159,0.080
2250.189,0.080
2250.219,0.080
2250.249,0.080
2250.280,0.080
2250.310,0.080
2250.340,0.080
2250.370,0.080
2250.400,0.080
2250.430,0.080
2250.460,0.080
2250.490,0.080
2250.521,0.080
2250.551,0.080
2250.581,0.080
2250.611,0.080
2250.641,0.080
2250.671,0.080
2250.701,0.080
2250.731,0.080
2250.761,0.080
2250.792,0.080
2250.822,0.080
2250.852,0.080
2250.882,0.080
2250.912,0.080
2250.942,0.080
2250.972,0.080
2251.003,0.080
2251.033,0.080
2251.063,0.080
2251.093,0.080
2251.123,0.080
2251.153,0.080
2251.183,0.080
2251.214,0.080
2251.244,0.080
2251.274,0.080
2251.304,0.080
2251.334,0.079
2251.364,0.079
2251.394,0.079
2251.425,0.079
2251.455,0.079
2251.485,0.079
2251.515,0.079
2251.545,0.079
2251.575,0.079
2251.605,0.079
2251.635,0.078
2251.666,0.078
2251.696,0.078
2251.726,0.079
2251.756,0.079
2251.786,0.079
2251.816,0.079
2251.846,0.079
2251.876,0.079
2251.906,0.079
2251.937,0.079
2251.967,0.080
2251.997,0.080
2252.027,0.080
2252.057,0.080
2252.087,0.080
2252.117,0.080
2252.148,0.081
2252.178,0.081
2252.208,0.081
2252.238,0.081
2252.268,0.081
2252.298,0.080
2252.328,0.080
2252.359,0.080
2252.389,0.080
2252.419,0.080
2252.449,0.080
2252.479,0.080
2252.509,0.080
2252.539,0.080
2252.570,0.080
2252.600,0.080
2252.630,0.080
2252.660,0.080
2252.690,0.080
2252.720,0.080
2252.750,0.080
2252.781,0.080
2252.811,0.080
2252.841,0.080
2252.871,0.080
2252.901,0.080
2252.931,0.080
2252.961,0.080
2252.991,0.080
2253.021,0.080
2253.052,0.080
2253.082,0.080
2253.112,0.079
2253.142,0.079
2253.172,0.079
2253.202,0.079
2253.232,0.079
2253.262,0.079
2253.293,0.079
2253.323,0.079
2253.353,0.079
2253.383,0.079
2253.413,0.079
2253.443,0.079
2253.473,0.079
2253.504,0.079
2253.534,0.079
2253.564,0.079
2253.594,0.079
2253.624,0.079
2253.654,0.079
2253.684,0.079
2253.715,0.079
2253.745,0.079
2253.775,0.079
2253.805,0.079
2253.835,0.079
2253.865,0.080
2253.895,0.080
2253.926,0.080
2253.956,0.079
2253.986,0.079
2254.016,0.079
2254.046,0.079
2254.076,0.079
2254.106,0.079
2254.136,0.079
2254.167,0.080
2254.197,0.080
2254.227,0.080
2254.257,0.080
2254.287,0.080
2254.317,0.080
2254.347,0.080
2254.377,0.080
2254.407,0.080
2254.438,0.080
2254.468,0.080
2254.498,0.080
2254.528,0.080
2254.558,0.080
2254.588,0.080
2254.618,0.080
2254.649,0.080
2254.679,0.080
2254.709,0.080
2254.739,0.080
2254.769,0.080
2254.799,0.080
2254.829,0.080
2254.860,0.080
2254.890,0.080
2254.920,0.080
2254.950,0.080
2254.980,0.080
2255.010,0.079
2255.040,0.079
2255.071,0.079
2255.101,0.079
2255.131,0.079
2255.161,0.079
2255.191,0.080
2255.221,0.080
2255.251,0.080
2255.281,0.080
2255.312,0.079
2255.342,0.079
2255.372,0.079
2255.402,0.079
2255.432,0.079
2255.462,0.078
2255.492,0.078
2255.522,0.078
2255.552,0.078
2255.583,0.078
2255.613,0.078
2255.643,0.078
2255.673,0.078
2255.703,0.079
2255.733,0.079
2255.763,0.079
2255.794,0.079
2255.824,0.079
2255.854,0.079
2255.884,0.079
2255.914,0.079
2255.944,0.079
2255.974,0.079
2256.005,0.079
2256.035,0.079
2256.065,0.079
2256.095,0.079
2256.125,0.079
2256.155,0.079
2256.185,0.080
2256.216,0.080
2256.246,0.080
2256.276,0.080
2256.306,0.080
2256.336,0.080
2256.366,0.080
2256.396,0.080
2256.427,0.080
2256.457,0.080
2256.487,0.080
2256.517,0.080
2256.547,0.080
2256.577,0.080
2256.607,0.080
2256.637,0.080
2256.667,0.080
2256.698,0.080
2256.728,0.080
2256.758,0.080
2256.788,0.080
2256.818,0.080
2256.848,0.080
2256.878,0.080
2256.908,0.079
2256.939,0.079
2256.969,0.079
2256.999,0.079
2257.029,0.080
2257.059,0.080
2257.089,0.080
2257.119,0.080
2257.150,0.080
2257.180,0.080
2257.210,0.079
2257.240,0.079
2257.270,0.079
2257.300,0.079
2257.330,0.079
2257.361,0.078
2257.391,0.078
2257.421,0.078
2257.451,0.078
2257.481,0.078
2257.511,0.078
2257.541,0.078
2257.572,0.078
2257.602,0.079
2257.632,0.079
2257.662,0.079
2257.692,0.079
2257.722,0.080
2257.752,0.080
2257.782,0.080
2257.813,0.080
2257.843,0.080
2257.873,0.080
2257.903,0.080
2257.933,0.080
2257.963,0.080
2257.993,0.080
2258.023,0.080
2258.053,0.080
2258.084,0.080
2258.114,0.080
2258.144,0.080
2258.174,0.080
2258.204,0.080
2258.234,0.080
2258.264,0.080
2258.295,0.080
2258.325,0.080
2258.355,0.080
2258.385,0.080
2258.415,0.080
2258.445,0.080
2258.475,0.080
2258.506,0.080
2258.536,0.080
2258.566,0.080
2258.596,0.080
2258.626,0.080
2258.656,0.080
2258.686,0.080
2258.717,0.080
2258.747,0.080
2258.777,0.080
2258.807,0.080
2258.837,0.080
2258.867,0.080
2258.897,0.080
2258.927,0.080
2258.958,0.080
2258.988,0.080
2259.018,0.080
2259.048,0.079
2259.078,0.079
2259.108,0.079
2259.138,0.079
2259.168,0.079
2259.198,0.078
2259.229,0.078
2259.259,0.078
2259.289,0.078
2259.319,0.078
2259.349,0.077
2259.379,0.077
2259.409,0.077
2259.440,0.078
2259.470,0.078
2259.500,0.078
2259.530,0.078
2259.560,0.079
2259.590,0.079
2259.620,0.079
2259.651,0.079
2259.681,0.080
2259.711,0.080
2259.741,0.080
2259.771,0.080
2259.801,0.080
2259.831,0.080
2259.862,0.080
2259.892,0.080
2259.922,0.080
2259.952,0.080
2259.982,0.080
2260.012,0.080
2260.042,0.080
2260.073,0.080
2260.103,0.079
2260.133,0.079
2260.163,0.079
2260.193,0.079
2260.223,0.079
2260.253,0.079
2260.283,0.079
2260.313,0.079
2260.344,0.079
2260.374,0.080
2260.404,0.080
2260.434,0.080
2260.464,0.080
2260.494,0.080
2260.524,0.080
2260.554,0.080
2260.585,0.080
2260.615,0.080
2260.645,0.080
2260.675,0.080
2260.705,0.080
2260.735,0.080
2260.765,0.080
2260.796,0.080
2260.826,0.080
2260.856,0.080
2260.886,0.080
2260.916,0.079
2260.946,0.079
2260.976,0.079
2261.007,0.079
2261.037,0.078
2261.067,0.078
2261.097,0.078
2261.127,0.078
2261.157,0.077
2261.187,0.077
2261.218,0.077
2261.248,0.077
2261.278,0.077
2261.308,0.078
2261.338,0.078
2261.368,0.078
2261.398,0.079
2261.428,0.079
2261.458,0.079
2261.489,0.079
2261.519,0.079
2261.549,0.079
2261.579,0.079
2261.609,0.079
2261.639,0.079
2261.669,0.079
2261.699,0.079
2261.730,0.079
2261.760,0.079
2261.790,0.079
2261.820,0.079
2261.850,0.079
2261.880,0.079
2261.910,0.079
2261.941,0.079
2261.971,0.080
2262.001,0.080
2262.031,0.080
2262.061,0.080
2262.091,0.080
2262.121,0.080
2262.152,0.080
2262.182,0.080
2262.212,0.080
2262.242,0.080
2262.272,0.079
2262.302,0.079
2262.332,0.079
2262.363,0.079
2262.393,0.079
2262.423,0.079
2262.453,0.079
2262.483,0.079
2262.513,0.079
2262.543,0.079
2262.573,0.079
2262.604,0.079
2262.634,0.079
2262.664,0.079
2262.694,0.079
2262.724,0.079
2262.754,0.079
2262.784,0.079
2262.814,0.079
2262.844,0.079
2262.875,0.079
2262.905,0.079
2262.935,0.078
2262.965,0.078
2262.995,0.078
2263.025,0.077
2263.055,0.077
2263.086,0.077
2263.116,0.077
2263.146,0.077
2263.176,0.077
2263.206,0.078
2263.236,0.078
2263.266,0.078
2263.297,0.079
2263.327,0.079
2263.357,0.079
2263.387,0.079
2263.417,0.079
2263.447,0.079
2263.477,0.079
2263.508,0.079
2263.538,0.079
2263.568,0.079
2263.598,0.079
2263.628,0.080
2263.658,0.080
2263.688,0.080
2263.719,0.080
2263.749,0.080
2263.779,0.080
2263.809,0.080
2263.839,0.080
2263.869,0.080
2263.899,0.080
2263.929,0.080
2263.959,0.080
2263.990,0.080
2264.020,0.080
2264.050,0.080
2264.080,0.080
2264.110,0.080
2264.140,0.080
2264.170,0.080
2264.200,0.080
2264.231,0.080
2264.261,0.080
2264.291,0.079
2264.321,0.079
2264.351,0.079
2264.381,0.079
2264.411,0.079
2264.442,0.079
2264.472,0.079
2264.502,0.079
2264.532,0.079
2264.562,0.079
2264.592,0.079
2264.622,0.079
2264.653,0.079
2264.683,0.079
2264.713,0.079
2264.743,0.078
2264.773,0.078
2264.803,0.077
2264.833,0.077
2264.864,0.077
2264.894,0.077
2264.924,0.077
2264.954,0.077
2264.984,0.077
2265.014,0.077
2265.044,0.078
2265.074,0.078
2265.104,0.078
2265.135,0.079
2265.165,0.079
2265.195,0.079
2265.225,0.079
2265.255,0.079
2265.285,0.079
2265.315,0.079
2265.345,0.079
2265.376,0.079
2265.406,0.079
2265.436,0.079
2265.466,0.080
2265.496,0.080
2265.526,0.080
2265.556,0.080
2265.587,0.080
2265.617,0.080
2265.647,0.080
2265.677,0.080
2265.707,0.080
2265.737,0.080
2265.767,0.080
2265.798,0.080
2265.828,0.080
2265.858,0.080
2265.888,0.080
2265.918,0.080
2265.948,0.080
2265.978,0.080
2266.009,0.080
2266.039,0.080
2266.069,0.080
2266.099,0.080
2266.129,0.080
2266.159,0.080
2266.189,0.080
2266.219,0.080
2266.250,0.079
2266.280,0.079
2266.310,0.079
2266.340,0.079
2266.370,0.079
2266.400,0.079
2266.430,0.079
2266.460,0.079
2266.491,0.079
2266.521,0.079
2266.551,0.078
2266.581,0.078
2266.611,0.078
2266.641,0.077
2266.671,0.077
2266.701,0.077
2266.732,0.077
2266.762,0.077
2266.792,0.077
2266.822,0.078
2266.852,0.078
2266.882,0.078
2266.912,0.079
2266.943,0.079
2266.973,0.079
2267.003,0.079
2267.033,0.079
2267.063,0.079
2267.093,0.079
2267.123,0.079
2267.154,0.080
2267.184,0.080
2267.214,0.080
2267.244,0.080
2267.274,0.080
2267.304,0.080
2267.334,0.080
2267.365,0.080
2267.395,0.080
2267.425,0.080
2267.455,0.079
2267.485,0.079
2267.515,0.079
2267.545,0.079
2267.575,0.079
2267.605,0.079
2267.636,0.079
2267.666,0.080
2267.696,0.080
2267.726,0.080
2267.756,0.080
2267.786,0.080
2267.816,0.080
2267.847,0.080
2267.877,0.080
2267.907,0.080
2267.937,0.080
2267.967,0.080
2267.997,0.080
2268.027,0.080
2268.057,0.080
2268.088,0.080
2268.118,0.080
2268.148,0.079
2268.178,0.079
2268.208,0.079
2268.238,0.079
2268.268,0.079
2268.299,0.079
2268.329,0.078
2268.359,0.078
2268.389,0.078
2268.419,0.077
2268.449,0.077
2268.479,0.077
2268.510,0.077
2268.540,0.077
2268.570,0.077
2268.600,0.077
2268.630,0.078
2268.660,0.078
2268.690,0.078
2268.720,0.079
2268.750,0.079
2268.781,0.079
2268.811,0.079
2268.841,0.079
2268.871,0.080
2268.901,0.080
2268.931,0.080
2268.961,0.080
2268.992,0.080
2269.022,0.080
2269.052,0.080
2269.082,0.080
2269.112,0.080
2269.142,0.080
2269.172,0.080
2269.202,0.080
2269.233,0.080
2269.263,0.080
2269.293,0.080
2269.323,0.080
2269.353,0.080
2269.383,0.080
2269.413,0.080
2269.444,0.080
2269.474,0.080
2269.504,0.080
2269.534,0.080
2269.564,0.080
2269.594,0.080
2269.624,0.080
2269.655,0.080
2269.685,0.080
2269.715,0.079
2269.745,0.079
2269.775,0.079
2269.805,0.079
2269.835,0.079
2269.865,0.079
2269.896,0.079
2269.926,0.079
2269.956,0.079
2269.986,0.079
2270.016,0.079
2270.046,0.079
2270.076,0.078
2270.106,0.078
2270.137,0.078
2270.167,0.077
2270.197,0.077
2270.227,0.077
2270.257,0.077
2270.287,0.077
2270.317,0.077
2270.348,0.077
2270.378,0.078
2270.408,0.078
2270.438,0.078
2270.468,0.079
2270.498,0.079
2270.528,0.079
2270.558,0.079
2270.589,0.079
2270.619,0.079
2270.649,0.079
2270.679,0.080
2270.709,0.080
2270.739,0.080
2270.769,0.080
2270.800,0.080
2270.830,0.080
2270.860,0.080
2270.890,0.080
2270.920,0.080
2270.950,0.080
2270.980,0.080
2271.010,0.080
2271.041,0.080
2271.071,0.080
2271.101,0.080
2271.131,0.080
2271.161,0.080
2271.191,0.080
2271.221,0.080
2271.251,0.080
2271.282,0.080
2271.312,0.080
2271.342,0.080
2271.372,0.080
2271.402,0.080
2271.432,0.080
2271.462,0.079
2271.493,0.079
2271.523,0.079
2271.553,0.079
2271.583,0.079
2271.613,0.079
2271.643,0.079
2271.673,0.079
2271.703,0.079
2271.734,0.079
2271.764,0.079
2271.794,0.078
2271.824,0.078
2271.854,0.078
2271.884,0.077
2271.914,0.077
2271.945,0.077
2271.975,0.077
2272.005,0.077
2272.035,0.077
2272.065,0.077
2272.095,0.077
2272.125,0.078
2272.156,0.078
2272.186,0.078
2272.216,0.079
2272.246,0.079
2272.276,0.079
2272.306,0.079
2272.336,0.079
2272.366,0.079
2272.396,0.079
2272.427,0.079
2272.457,0.079
2272.487,0.079
2272.517,0.079
2272.547,0.080
2272.577,0.080
2272.607,0.080
2272.638,0.080
2272.668,0.080
2272.698,0.080
2272.728,0.080
2272.758,0.080
2272.788,0.080
2272.818,0.080
2272.849,0.080
2272.879,0.080
2272.909,0.080
2272.939,0.080
2272.969,0.080
2272.999,0.080
2273.029,0.080
2273.059,0.080
2273.090,0.080
2273.120,0.080
2273.150,0.080
2273.180,0.080
2273.210,0.080
2273.240,0.080
2273.270,0.079
2273.301,0.079
2273.331,0.079
2273.361,0.079
2273.391,0.079
2273.421,0.079
2273.451,0.079
2273.481,0.079
2273.511,0.078
2273.542,0.078
2273.572,0.078
2273.602,0.077
2273.632,0.077
2273.662,0.077
2273.692,0.077
2273.722,0.077
2273.752,0.077
2273.783,0.077
2273.813,0.078
2273.843,0.078
2273.873,0.078
2273.903,0.079
2273.933,0.079
2273.963,0.079
2273.994,0.079
2274.024,0.079
2274.054,0.079
2274.084,0.079
2274.114,0.080
2274.144,0.080
2274.174,0.080
2274.205,0.080
2274.235,0.080
2274.265,0.080
2274.295,0.080
2274.325,0.080
2274.355,0.080
2274.385,0.080
2274.415,0.080
2274.446,0.080
2274.476,0.080
2274.506,0.080
2274.536,0.080
2274.566,0.080
2274.596,0.080
2274.626,0.080
2274.656,0.080
2274.687,0.080
2274.717,0.080
2274.747,0.080
2274.777,0.080
2274.807,0.080
2274.837,0.079
2274.867,0.079
2274.897,0.079
2274.928,0.079
2274.958,0.079
2274.988,0.079
2275.018,0.079
2275.048,0.079
2275.078,0.079
2275.108,0.079
2275.139,0.079
2275.169,0.078
2275.199,0.078
2275.229,0.078
2275.259,0.078
2275.289,0.077
2275.319,0.077
2275.350,0.077
2275.380,0.077
2275.410,0.077
2275.440,0.077
2275.470,0.077
2275.500,0.078
2275.530,0.078
2275.560,0.079
2275.591,0.079
2275.621,0.079
2275.651,0.079
2275.681,0.079
2275.711,0.079
2275.741,0.079
2275.771,0.079
2275.802,0.079
2275.832,0.079
2275.862,0.079
2275.892,0.079
2275.922,0.079
2275.952,0.079
2275.982,0.080
2276.012,0.080
2276.042,0.080
2276.073,0.080
2276.103,0.080
2276.133,0.080
2276.163,0.080
2276.193,0.080
2276.223,0.080
2276.253,0.080
2276.284,0.080
2276.314,0.080
2276.344,0.080
2276.374,0.080
2276.404,0.080
2276.434,0.080
2276.464,0.080
2276.495,0.079
2276.525,0.079
2276.555,0.079
2276.585,0.079
2276.615,0.079
2276.645,0.079
2276.675,0.079
2276.706,0.079
2276.736,0.079
2276.766,0.079
2276.796,0.079
2276.826,0.079
2276.856,0.078
2276.886,0.078
2276.916,0.078
2276.947,0.078
2276.977,0.077
2277.007,0.077
2277.037,0.077
2277.067,0.077
2277.097,0.077
2277.127,0.078
2277.157,0.078
2277.188,0.078
2277.218,0.079
2277.248,0.079
2277.278,0.079
2277.308,0.079
2277.338,0.079
2277.368,0.079
2277.398,0.079
2277.429,0.079
2277.459,0.080
2277.489,0.080
2277.519,0.080
2277.549,0.079
2277.579,0.079
2277.609,0.079
2277.640,0.079
2277.670,0.079
2277.700,0.079
2277.730,0.080
2277.760,0.080
2277.790,0.080
2277.820,0.080
2277.851,0.080
2277.881,0.080
2277.911,0.080
2277.941,0.080
2277.971,0.080
2278.001,0.080
2278.031,0.080
2278.061,0.080
2278.092,0.080
2278.122,0.080
2278.152,0.080
2278.182,0.080
2278.212,0.080
2278.242,0.080
2278.272,0.080
2278.302,0.080
2278.333,0.080
2278.363,0.079
2278.393,0.079
2278.423,0.079
2278.453,0.079
2278.483,0.079
2278.513,0.079
2278.543,0.078
2278.574,0.078
2278.604,0.078
2278.634,0.078
2278.664,0.078
2278.694,0.078
2278.724,0.078
2278.754,0.078
2278.785,0.078
2278.815,0.078
2278.845,0.079
2278.875,0.079
2278.905,0.079
2278.935,0.079
2278.965,0.079
2278.996,0.079
2279.026,0.079
2279.056,0.079
2279.086,0.080
2279.116,0.080
2279.146,0.080
2279.176,0.080
2279.207,0.080
2279.237,0.080
2279.267,0.080
2279.297,0.080
2279.327,0.080
2279.357,0.080
2279.387,0.080
2279.417,0.080
2279.448,0.080
2279.478,0.080
2279.508,0.080
2279.538,0.080
2279.568,0.080
2279.598,0.080
2279.628,0.080
2279.658,0.080
2279.688,0.079
2279.719,0.079
2279.749,0.079
2279.779,0.079
2279.809,0.079
2279.839,0.079
2279.869,0.079
2279.899,0.079
2279.930,0.079
2279.960,0.079
2279.990,0.079
2280.020,0.079
2280.050,0.079
2280.080,0.079
2280.110,0.079
2280.141,0.079
2280.171,0.079
2280.201,0.079
2280.231,0.079
2280.261,0.079
2280.291,0.079
2280.321,0.079
2280.352,0.079
2280.382,0.079
2280.412,0.079
2280.442,0.079
2280.472,0.079
2280.502,0.079
2280.532,0.079
2280.563,0.079
2280.593,0.079
2280.623,0.079
2280.653,0.079
2280.683,0.079
2280.713,0.080
2280.743,0.080
2280.773,0.080
2280.803,0.080
2280.833,0.080
2280.864,0.080
2280.894,0.080
2280.924,0.080
2280.954,0.080
2280.984,0.080
2281.014,0.080
2281.044,0.080
2281.075,0.080
2281.105,0.080
2281.135,0.080
2281.165,0.080
2281.195,0.080
2281.225,0.080
2281.255,0.080
2281.286,0.080
2281.316,0.080
2281.346,0.080
2281.376,0.080
2281.406,0.080
2281.436,0.080
2281.466,0.080
2281.497,0.080
2281.527,0.080
2281.557,0.080
2281.587,0.080
2281.617,0.080
2281.647,0.080
2281.677,0.080
2281.708,0.080
2281.738,0.079
2281.768,0.079
2281.798,0.079
2281.828,0.079
2281.858,0.079
2281.888,0.079
2281.918,0.079
2281.948,0.079
2281.979,0.079
2282.009,0.079
2282.039,0.079
2282.069,0.079
2282.099,0.079
2282.129,0.079
2282.159,0.079
2282.189,0.079
2282.220,0.079
2282.250,0.079
2282.280,0.079
2282.310,0.079
2282.340,0.079
2282.370,0.080
2282.400,0.080
2282.431,0.080
2282.461,0.080
2282.491,0.080
2282.521,0.080
2282.551,0.080
2282.581,0.080
2282.611,0.080
2282.642,0.080
2282.672,0.080
2282.702,0.080
2282.732,0.080
2282.762,0.080
2282.792,0.080
2282.822,0.079
2282.853,0.079
2282.883,0.079
2282.913,0.080
2282.943,0.080
2282.973,0.080
2283.003,0.080
2283.033,0.080
2283.063,0.080
2283.094,0.080
2283.124,0.080
2283.154,0.080
2283.184,0.080
2283.214,0.080
2283.244,0.080
2283.274,0.080
2283.304,0.080
2283.334,0.080
2283.365,0.080
2283.395,0.080
2283.425,0.080
2283.455,0.080
2283.485,0.080
2283.515,0.080
2283.545,0.080
2283.576,0.080
2283.606,0.080
2283.636,0.080
2283.666,0.080
2283.696,0.080
2283.726,0.080
2283.756,0.080
2283.787,0.080
2283.817,0.080
2283.847,0.080
2283.877,0.080
2283.907,0.080
2283.937,0.080
2283.967,0.079
2283.998,0.079
2284.028,0.079
2284.058,0.079
2284.088,0.079
2284.118,0.079
2284.148,0.079
2284.178,0.079
2284.208,0.079
2284.239,0.079
2284.269,0.079
2284.299,0.079
2284.329,0.079
2284.359,0.079
2284.389,0.079
2284.419,0.079
2284.449,0.079
2284.479,0.079
2284.510,0.079
2284.540,0.079
2284.570,0.079
2284.600,0.079
2284.630,0.079
2284.660,0.079
2284.690,0.079
2284.721,0.079
2284.751,0.079
2284.781,0.079
2284.811,0.079
2284.841,0.079
2284.871,0.079
2284.901,0.079
2284.932,0.079
2284.962,0.080
2284.992,0.080
2285.022,0.080
2285.052,0.080
2285.082,0.080
2285.112,0.080
2285.143,0.080
2285.173,0.080
2285.203,0.080
2285.233,0.080
2285.263,0.080
2285.293,0.080
2285.323,0.080
2285.354,0.080
2285.384,0.080
2285.414,0.079
2285.444,0.079
2285.474,0.079
2285.504,0.079
2285.534,0.079
2285.564,0.079
2285.594,0.079
2285.625,0.079
2285.655,0.079
2285.685,0.079
2285.715,0.078
2285.745,0.078
2285.775,0.078
2285.805,0.078
2285.835,0.079
2285.866,0.079
2285.896,0.079
2285.926,0.079
2285.956,0.079
2285.986,0.079
2286.016,0.079
2286.046,0.079
2286.077,0.079
2286.107,0.079
2286.137,0.080
2286.167,0.080
2286.197,0.080
2286.227,0.080
2286.257,0.080
2286.288,0.080
2286.318,0.080
2286.348,0.079
2286.378,0.079
2286.408,0.079
2286.438,0.079
2286.468,0.080
2286.499,0.080
2286.529,0.080
2286.559,0.080
2286.589,0.080
2286.619,0.079
2286.649,0.079
2286.679,0.079
2286.709,0.079
2286.740,0.079
2286.770,0.079
2286.800,0.079
2286.830,0.079
2286.860,0.079
2286.890,0.078
2286.920,0.078
2286.950,0.078
2286.980,0.079
2287.011,0.079
2287.041,0.079
2287.071,0.079
2287.101,0.078
2287.131,0.078
2287.161,0.078
2287.191,0.078
2287.222,0.078
2287.252,0.078
2287.282,0.078
2287.312,0.078
2287.342,0.078
2287.372,0.078
2287.402,0.079
2287.433,0.079
2287.463,0.079
2287.493,0.079
2287.523,0.079
2287.553,0.079
2287.583,0.079
2287.613,0.079
2287.644,0.079
2287.674,0.079
2287.704,0.079
2287.734,0.079
2287.764,0.079
2287.794,0.079
2287.824,0.079
2287.854,0.079
2287.885,0.079
2287.915,0.079
2287.945,0.079
2287.975,0.079
2288.005,0.079
2288.035,0.079
2288.065,0.080
2288.095,0.080
2288.125,0.080
2288.156,0.080
2288.186,0.079
2288.216,0.079
2288.246,0.079
2288.276,0.079
2288.306,0.079
2288.336,0.079
2288.367,0.079
2288.397,0.079
2288.427,0.079
2288.457,0.079
2288.487,0.079
2288.517,0.079
2288.547,0.079
2288.578,0.079
2288.608,0.078
2288.638,0.078
2288.668,0.078
2288.698,0.078
2288.728,0.077
2288.758,0.077
2288.789,0.077
2288.819,0.077
2288.849,0.078
2288.879,0.078
2288.909,0.078
2288.939,0.078
2288.969,0.078
2289.000,0.078
2289.030,0.078
2289.060,0.078
2289.090,0.078
2289.120,0.078
2289.150,0.078
2289.180,0.078
2289.210,0.078
2289.240,0.078
2289.271,0.078
2289.301,0.078
2289.331,0.078
2289.361,0.079
2289.391,0.079
2289.421,0.079
2289.451,0.079
2289.481,0.079
2289.512,0.079
2289.542,0.079
2289.572,0.079
2289.602,0.079
2289.632,0.079
2289.662,0.079
2289.692,0.079
2289.723,0.079
2289.753,0.079
2289.783,0.079
2289.813,0.079
2289.843,0.079
2289.873,0.079
2289.903,0.079
2289.934,0.079
2289.964,0.078
2289.994,0.078
2290.024,0.078
2290.054,0.077
2290.084,0.077
2290.114,0.077
2290.145,0.077
2290.175,0.077
2290.205,0.077
2290.235,0.077
2290.265,0.077
2290.295,0.077
2290.325,0.077
2290.355,0.078
2290.385,0.078
2290.416,0.078
2290.446,0.079
2290.476,0.079
2290.506,0.079
2290.536,0.079
2290.566,0.079
2290.596,0.079
2290.626,0.079
2290.657,0.079
2290.687,0.079
2290.717,0.079
2290.747,0.079
2290.777,0.079
2290.807,0.079
2290.837,0.079
2290.868,0.079
2290.898,0.079
2290.928,0.079
2290.958,0.079
2290.988,0.079
2291.018,0.079
2291.048,0.079
2291.079,0.079
2291.109,0.079
2291.139,0.079
2291.169,0.079
2291.199,0.079
2291.229,0.078
2291.259,0.078
2291.290,0.078
2291.320,0.078
2291.350,0.078
2291.380,0.077
2291.410,0.077
2291.440,0.077
2291.470,0.076
2291.500,0.076
2291.531,0.076
2291.561,0.075
2291.591,0.075
2291.621,0.075
2291.651,0.076
2291.681,0.076
2291.711,0.076
2291.741,0.077
2291.771,0.077
2291.802,0.078
2291.832,0.078
2291.862,0.079
2291.892,0.079
2291.922,0.079
2291.952,0.079
2291.982,0.079
2292.013,0.079
2292.043,0.079
2292.073,0.079
2292.103,0.079
2292.133,0.079
2292.163,0.079
2292.193,0.079
2292.224,0.079
2292.254,0.079
2292.284,0.079
2292.314,0.079
2292.344,0.079
2292.374,0.079
2292.404,0.079
2292.435,0.079
2292.465,0.079
2292.495,0.079
2292.525,0.079
2292.555,0.079
2292.585,0.079
2292.615,0.079
2292.646,0.079
2292.676,0.079
2292.706,0.079
2292.736,0.079
2292.766,0.079
2292.796,0.079
2292.826,0.079
2292.856,0.078
2292.886,0.078
2292.917,0.078
2292.947,0.077
2292.977,0.077
2293.007,0.076
2293.037,0.076
2293.067,0.076
2293.097,0.076
2293.127,0.076
2293.158,0.077
2293.188,0.077
2293.218,0.077
2293.248,0.078
2293.278,0.078
2293.308,0.078
2293.338,0.078
2293.369,0.078
2293.399,0.078
2293.429,0.078
2293.459,0.078
2293.489,0.078
2293.519,0.078
2293.549,0.078
2293.580,0.078
2293.610,0.078
2293.640,0.077
2293.670,0.077
2293.700,0.077
2293.730,0.077
2293.760,0.077
2293.791,0.077
2293.821,0.077
2293.851,0.077
2293.881,0.077
2293.911,0.078
2293.941,0.078
2293.971,0.078
2294.001,0.078
2294.031,0.078
2294.062,0.078
2294.092,0.078
2294.122,0.078
2294.152,0.078
2294.182,0.078
2294.212,0.078
2294.242,0.077
2294.272,0.077
2294.303,0.077
2294.333,0.076
2294.363,0.076
2294.393,0.075
2294.423,0.075
2294.453,0.075
2294.483,0.076
2294.514,0.076
2294.544,0.076
2294.574,0.077
2294.604,0.077
2294.634,0.078
2294.664,0.078
2294.694,0.079
2294.725,0.079
2294.755,0.079
2294.785,0.079
2294.815,0.079
2294.845,0.080
2294.875,0.080
2294.905,0.080
2294.936,0.080
2294.966,0.080
2294.996,0.079
2295.026,0.079
2295.056,0.079
2295.086,0.079
2295.116,0.079
2295.146,0.079
2295.177,0.079
2295.207,0.079
2295.237,0.079
2295.267,0.079
2295.297,0.079
2295.327,0.079
2295.357,0.078
2295.387,0.078
2295.417,0.078
2295.448,0.078
2295.478,0.078
2295.508,0.078
2295.538,0.078
2295.568,0.077
2295.598,0.077
2295.628,0.077
2295.659,0.077
2295.689,0.076
2295.719,0.076
2295.749,0.075
2295.779,0.075
2295.809,0.074
2295.839,0.074
2295.870,0.074
2295.900,0.073
2295.930,0.073
2295.960,0.073
2295.990,0.073
2296.020,0.073
2296.050,0.074
2296.081,0.074
2296.111,0.075
2296.141,0.076
2296.171,0.076
2296.201,0.077
2296.231,0.077
2296.261,0.077
2296.292,0.077
2296.322,0.078
2296.352,0.078
2296.382,0.078
2296.412,0.078
2296.442,0.078
2296.472,0.078
2296.502,0.078
2296.532,0.078
2296.563,0.079
2296.593,0.079
2296.623,0.079
2296.653,0.079
2296.683,0.079
2296.713,0.079
2296.743,0.079
2296.773,0.079
2296.804,0.079
2296.834,0.079
2296.864,0.079
2296.894,0.078
2296.924,0.078
2296.954,0.078
2296.984,0.077
2297.015,0.077
2297.045,0.077
2297.075,0.076
2297.105,0.076
2297.135,0.076
2297.165,0.076
2297.195,0.076
2297.226,0.076
2297.256,0.077
2297.286,0.077
2297.316,0.077
2297.346,0.078
2297.376,0.078
2297.406,0.078
2297.437,0.078
2297.467,0.078
2297.497,0.078
2297.527,0.078
2297.557,0.078
2297.587,0.078
2297.617,0.078
2297.647,0.078
2297.677,0.078
2297.708,0.078
2297.738,0.078
2297.768,0.078
2297.798,0.079
2297.828,0.079
2297.858,0.078
2297.888,0.078
2297.918,0.078
2297.949,0.078
2297.979,0.078
2298.009,0.077
2298.039,0.077
2298.069,0.076
2298.099,0.075
2298.129,0.074
2298.160,0.074
2298.190,0.073
2298.220,0.072
2298.250,0.072
2298.280,0.071
2298.310,0.071
2298.340,0.071
2298.371,0.071
2298.401,0.072
2298.431,0.072
2298.461,0.073
2298.491,0.073
2298.521,0.074
2298.551,0.075
2298.582,0.075
2298.612,0.076
2298.642,0.077
2298.672,0.077
2298.702,0.078
2298.732,0.078
2298.762,0.078
2298.792,0.079
2298.823,0.079
2298.853,0.079
2298.883,0.079
2298.913,0.079
2298.943,0.079
2298.973,0.079
2299.003,0.079
2299.033,0.079
2299.063,0.079
2299.094,0.079
2299.124,0.079
2299.154,0.079
2299.184,0.079
2299.214,0.079
2299.244,0.079
2299.274,0.079
2299.305,0.079
2299.335,0.079
2299.365,0.079
2299.395,0.078
2299.425,0.078
2299.455,0.077
2299.485,0.077
2299.516,0.077
2299.546,0.076
2299.576,0.076
2299.606,0.075
2299.636,0.075
2299.666,0.075
2299.696,0.075
2299.727,0.075
2299.757,0.075
2299.787,0.075
2299.817,0.075
2299.847,0.076
2299.877,0.076
2299.907,0.077
2299.938,0.077
2299.968,0.078
2299.998,0.078
2300.028,0.000
