# wavenumber,absorbance
2000.001,0.082
2000.061,0.081
2000.121,0.081
2000.182,0.081
2000.242,0.081
2000.302,0.081
2000.362,0.081
2000.423,0.081
2000.483,0.081
2000.543,0.081
2000.603,0.081
2000.664,0.081
2000.724,0.081
2000.784,0.081
2000.844,0.081
2000.905,0.081
2000.965,0.081
2001.025,0.081
2001.086,0.081
2001.146,0.081
2001.206,0.081
2001.266,0.081
2001.327,0.081
2001.387,0.081
2001.447,0.081
2001.507,0.081
2001.568,0.081
2001.628,0.081
2001.688,0.081
2001.748,0.081
2001.809,0.081
2001.869,0.081
2001.929,0.081
2001.990,0.081
2002.050,0.081
2002.110,0.081
2002.170,0.081
2002.231,0.081
2002.291,0.081
2002.351,0.081
2002.411,0.081
2002.472,0.081
2002.532,0.081
2002.592,0.081
2002.652,0.081
2002.713,0.081
2002.773,0.081
2002.833,0.081
2002.893,0.081
2002.954,0.081
2003.014,0.081
2003.074,0.082
2003.135,0.082
2003.195,0.083
2003.255,0.084
2003.315,0.085
2003.376,0.086
2003.436,0.086
2003.496,0.087
2003.556,0.087
2003.617,0.086
2003.677,0.086
2003.737,0.085
2003.797,0.084
2003.858,0.083
2003.918,0.083
2003.978,0.082
2004.038,0.082
2004.099,0.082
2004.159,0.082
2004.219,0.082
2004.280,0.082
2004.340,0.082
2004.400,0.082
2004.460,0.082
2004.521,0.081
2004.581,0.081
2004.641,0.081
2004.701,0.081
2004.762,0.081
2004.822,0.081
2004.882,0.081
2004.943,0.081
2005.003,0.081
2005.063,0.081
2005.123,0.081
2005.183,0.081
2005.244,0.081
2005.304,0.081
2005.364,0.081
2005.425,0.081
2005.485,0.081
2005.545,0.081
2005.605,0.081
2005.666,0.081
2005.726,0.081
2005.786,0.081
2005.846,0.081
2005.907,0.081
2005.967,0.081
2006.027,0.081
2006.088,0.081
2006.148,0.081
2006.208,0.081
2006.268,0.081
2006.328,0.081
2006.389,0.081
2006.449,0.081
2006.509,0.081
2006.570,0.081
2006.630,0.081
2006.690,0.081
2006.750,0.081
2006.811,0.081
2006.871,0.081
2006.931,0.081
2006.991,0.081
2007.052,0.081
2007.112,0.081
2007.172,0.081
2007.233,0.081
2007.293,0.081
2007.353,0.082
2007.413,0.082
2007.474,0.082
2007.534,0.083
2007.594,0.084
2007.654,0.084
2007.715,0.085
2007.775,0.085
2007.835,0.085
2007.895,0.085
2007.956,0.085
2008.016,0.084
2008.076,0.084
2008.136,0.084
2008.197,0.084
2008.257,0.085
2008.317,0.086
2008.378,0.087
2008.438,0.087
2008.498,0.087
2008.558,0.087
2008.619,0.086
2008.679,0.085
2008.739,0.084
2008.799,0.083
2008.860,0.082
2008.920,0.082
2008.980,0.081
2009.040,0.081
2009.101,0.081
2009.161,0.081
2009.221,0.081
2009.281,0.081
2009.342,0.081
2009.402,0.081
2009.462,0.081
2009.523,0.081
2009.583,0.081
2009.643,0.081
2009.703,0.081
2009.764,0.081
2009.824,0.081
2009.884,0.081
2009.944,0.081
2010.005,0.081
2010.065,0.081
2010.125,0.081
2010.185,0.081
2010.246,0.081
2010.306,0.081
2010.366,0.081
2010.427,0.081
2010.487,0.081
2010.547,0.081
2010.607,0.081
2010.668,0.081
2010.728,0.081
2010.788,0.081
2010.848,0.081
2010.909,0.081
2010.969,0.081
2011.029,0.081
2011.089,0.081
2011.150,0.081
2011.210,0.081
2011.270,0.081
2011.330,0.081
2011.391,0.081
2011.451,0.081
2011.511,0.081
2011.572,0.081
2011.632,0.081
2011.692,0.082
2011.752,0.082
2011.813,0.083
2011.873,0.084
2011.933,0.085
2011.993,0.086
2012.054,0.087
2012.114,0.087
2012.174,0.087
2012.234,0.086
2012.295,0.086
2012.355,0.085
2012.415,0.084
2012.476,0.083
2012.536,0.083
2012.596,0.083
2012.656,0.083
2012.717,0.083
2012.777,0.083
2012.837,0.084
2012.897,0.084
2012.958,0.085
2013.018,0.086
2013.078,0.087
2013.138,0.088
2013.199,0.089
2013.259,0.089
2013.319,0.089
2013.380,0.089
2013.440,0.087
2013.500,0.086
2013.560,0.084
2013.621,0.083
2013.681,0.082
2013.741,0.082
2013.801,0.082
2013.862,0.081
2013.922,0.081
2013.982,0.081
2014.042,0.081
2014.103,0.081
2014.163,0.081
2014.223,0.081
2014.283,0.081
2014.344,0.081
2014.404,0.081
2014.464,0.081
2014.525,0.081
2014.585,0.081
2014.645,0.081
2014.705,0.081
2014.766,0.081
2014.826,0.081
2014.886,0.081
2014.946,0.081
2015.007,0.081
2015.067,0.081
2015.127,0.081
2015.187,0.081
2015.248,0.081
2015.308,0.081
2015.368,0.081
2015.428,0.081
2015.489,0.081
2015.549,0.081
2015.609,0.081
2015.670,0.081
2015.730,0.081
2015.790,0.081
2015.850,0.081
2015.911,0.081
2015.971,0.082
2016.031,0.082
2016.091,0.083
2016.152,0.084
2016.212,0.086
2016.272,0.087
2016.333,0.088
2016.393,0.088
2016.453,0.088
2016.513,0.088
2016.573,0.087
2016.634,0.085
2016.694,0.084
2016.754,0.083
2016.815,0.082
2016.875,0.082
2016.935,0.082
2016.995,0.082
2017.056,0.083
2017.116,0.083
2017.176,0.083
2017.236,0.083
2017.297,0.082
2017.357,0.082
2017.417,0.082
2017.478,0.081
2017.538,0.082
2017.598,0.082
2017.658,0.083
2017.719,0.084
2017.779,0.086
2017.839,0.088
2017.899,0.090
2017.960,0.092
2018.020,0.093
2018.080,0.094
2018.140,0.093
2018.201,0.092
2018.261,0.090
2018.321,0.087
2018.381,0.085
2018.442,0.084
2018.502,0.082
2018.562,0.082
2018.623,0.081
2018.683,0.081
2018.743,0.081
2018.803,0.081
2018.864,0.081
2018.924,0.081
2018.984,0.081
2019.044,0.081
2019.105,0.081
2019.165,0.081
2019.225,0.081
2019.285,0.081
2019.346,0.081
2019.406,0.081
2019.466,0.081
2019.526,0.081
2019.587,0.081
2019.647,0.081
2019.707,0.081
2019.768,0.081
2019.828,0.081
2019.888,0.081
2019.948,0.081
2020.009,0.081
2020.069,0.081
2020.129,0.081
2020.189,0.082
2020.250,0.082
2020.310,0.083
2020.370,0.084
2020.430,0.086
2020.491,0.087
2020.551,0.089
2020.611,0.090
2020.672,0.091
2020.732,0.091
2020.792,0.091
2020.852,0.090
2020.913,0.088
2020.973,0.087
2021.033,0.086
2021.093,0.085
2021.154,0.084
2021.214,0.084
2021.274,0.084
2021.334,0.084
2021.395,0.084
2021.455,0.083
2021.515,0.083
2021.575,0.083
2021.636,0.082
2021.696,0.082
2021.756,0.082
2021.817,0.082
2021.877,0.082
2021.937,0.082
2021.997,0.082
2022.058,0.081
2022.118,0.081
2022.178,0.081
2022.238,0.082
2022.299,0.082
2022.359,0.082
2022.419,0.084
2022.479,0.085
2022.540,0.088
2022.600,0.091
2022.660,0.094
2022.720,0.097
2022.781,0.099
2022.841,0.100
2022.901,0.099
2022.962,0.097
2023.022,0.094
2023.082,0.091
2023.142,0.088
2023.203,0.085
2023.263,0.083
2023.323,0.082
2023.383,0.082
2023.444,0.081
2023.504,0.081
2023.564,0.081
2023.625,0.081
2023.685,0.081
2023.745,0.081
2023.805,0.081
2023.865,0.081
2023.926,0.081
2023.986,0.081
2024.046,0.081
2024.107,0.081
2024.167,0.081
2024.227,0.081
2024.287,0.081
2024.348,0.081
2024.408,0.082
2024.468,0.082
2024.528,0.083
2024.589,0.084
2024.649,0.086
2024.709,0.088
2024.770,0.090
2024.830,0.093
2024.890,0.094
2024.950,0.095
2025.010,0.094
2025.071,0.093
2025.131,0.091
2025.191,0.089
2025.252,0.088
2025.312,0.087
2025.372,0.086
2025.432,0.086
2025.493,0.085
2025.553,0.085
2025.613,0.084
2025.673,0.084
2025.734,0.083
2025.794,0.083
2025.854,0.082
2025.915,0.082
2025.975,0.082
2026.035,0.082
2026.095,0.081
2026.156,0.081
2026.216,0.081
2026.276,0.081
2026.336,0.081
2026.397,0.081
2026.457,0.081
2026.517,0.081
2026.577,0.081
2026.638,0.081
2026.698,0.081
2026.758,0.081
2026.818,0.081
2026.879,0.081
2026.939,0.081
2026.999,0.082
2027.060,0.082
2027.120,0.083
2027.180,0.085
2027.240,0.089
2027.301,0.093
2027.361,0.097
2027.421,0.102
2027.481,0.106
2027.542,0.108
2027.602,0.108
2027.662,0.106
2027.722,0.103
2027.783,0.098
2027.843,0.093
2027.903,0.089
2027.964,0.086
2028.024,0.083
2028.084,0.082
2028.144,0.082
2028.205,0.082
2028.265,0.081
2028.325,0.081
2028.385,0.081
2028.446,0.081
2028.506,0.081
2028.566,0.082
2028.626,0.082
2028.687,0.082
2028.747,0.084
2028.807,0.085
2028.867,0.087
2028.928,0.090
2028.988,0.093
2029.048,0.096
2029.109,0.098
2029.169,0.098
2029.229,0.098
2029.289,0.096
2029.350,0.094
2029.410,0.092
2029.470,0.090
2029.530,0.089
2029.591,0.088
2029.651,0.087
2029.711,0.086
2029.771,0.085
2029.832,0.085
2029.892,0.084
2029.952,0.083
2030.012,0.082
2030.073,0.082
2030.133,0.082
2030.193,0.082
2030.254,0.081
2030.314,0.081
2030.374,0.081
2030.434,0.081
2030.495,0.081
2030.555,0.081
2030.615,0.082
2030.675,0.082
2030.736,0.082
2030.796,0.082
2030.856,0.081
2030.917,0.081
2030.977,0.081
2031.037,0.081
2031.097,0.081
2031.158,0.082
2031.218,0.081
2031.278,0.081
2031.338,0.081
2031.399,0.081
2031.459,0.081
2031.519,0.081
2031.579,0.081
2031.640,0.082
2031.700,0.082
2031.760,0.083
2031.820,0.084
2031.881,0.087
2031.941,0.091
2032.001,0.097
2032.062,0.103
2032.122,0.110
2032.182,0.115
2032.242,0.118
2032.303,0.118
2032.363,0.115
2032.423,0.111
2032.483,0.104
2032.544,0.098
2032.604,0.092
2032.664,0.088
2032.724,0.085
2032.785,0.083
2032.845,0.083
2032.905,0.083
2032.965,0.085
2033.026,0.088
2033.086,0.091
2033.146,0.095
2033.207,0.098
2033.267,0.101
2033.327,0.102
2033.387,0.102
2033.448,0.101
2033.508,0.099
2033.568,0.096
2033.628,0.094
2033.689,0.092
2033.749,0.090
2033.809,0.088
2033.869,0.087
2033.930,0.086
2033.990,0.085
2034.050,0.084
2034.110,0.083
2034.171,0.082
2034.231,0.082
2034.291,0.082
2034.352,0.082
2034.412,0.082
2034.472,0.082
2034.532,0.081
2034.593,0.081
2034.653,0.081
2034.713,0.081
2034.773,0.081
2034.834,0.082
2034.894,0.082
2034.954,0.082
2035.015,0.082
2035.075,0.082
2035.135,0.082
2035.195,0.082
2035.255,0.082
2035.316,0.082
2035.376,0.082
2035.436,0.082
2035.497,0.082
2035.557,0.081
2035.617,0.081
2035.677,0.081
2035.738,0.082
2035.798,0.082
2035.858,0.082
2035.918,0.082
2035.979,0.082
2036.039,0.082
2036.099,0.081
2036.160,0.082
2036.220,0.082
2036.280,0.082
2036.340,0.082
2036.401,0.083
2036.461,0.084
2036.521,0.087
2036.581,0.091
2036.642,0.098
2036.702,0.105
2036.762,0.114
2036.822,0.122
2036.883,0.128
2036.943,0.130
2037.003,0.130
2037.063,0.126
2037.124,0.121
2037.184,0.116
2037.244,0.112
2037.305,0.109
2037.365,0.108
2037.425,0.108
2037.485,0.108
2037.546,0.107
2037.606,0.106
2037.666,0.103
2037.726,0.100
2037.787,0.097
2037.847,0.094
2037.907,0.091
2037.967,0.089
2038.028,0.088
2038.088,0.086
2038.148,0.085
2038.208,0.084
2038.269,0.083
2038.329,0.082
2038.389,0.082
2038.450,0.082
2038.510,0.082
2038.570,0.082
2038.630,0.082
2038.691,0.081
2038.751,0.081
2038.811,0.081
2038.871,0.081
2038.932,0.082
2038.992,0.082
2039.052,0.082
2039.112,0.082
2039.173,0.082
2039.233,0.082
2039.293,0.082
2039.354,0.082
2039.414,0.082
2039.474,0.082
2039.534,0.082
2039.595,0.082
2039.655,0.082
2039.715,0.082
2039.775,0.082
2039.836,0.082
2039.896,0.082
2039.956,0.082
2040.016,0.082
2040.077,0.082
2040.137,0.082
2040.197,0.082
2040.257,0.082
2040.318,0.082
2040.378,0.082
2040.438,0.082
2040.499,0.082
2040.559,0.082
2040.619,0.082
2040.679,0.082
2040.740,0.082
2040.800,0.082
2040.860,0.082
2040.920,0.082
2040.981,0.082
2041.041,0.083
2041.101,0.085
2041.161,0.089
2041.222,0.096
2041.282,0.106
2041.342,0.119
2041.402,0.132
2041.463,0.145
2041.523,0.155
2041.583,0.160
2041.644,0.160
2041.704,0.153
2041.764,0.143
2041.824,0.131
2041.885,0.119
2041.945,0.109
2042.005,0.100
2042.065,0.094
2042.126,0.090
2042.186,0.087
2042.246,0.086
2042.307,0.084
2042.367,0.083
2042.427,0.082
2042.487,0.082
2042.547,0.082
2042.608,0.082
2042.668,0.082
2042.728,0.082
2042.789,0.082
2042.849,0.082
2042.909,0.082
2042.969,0.082
2043.030,0.082
2043.090,0.082
2043.150,0.082
2043.210,0.082
2043.271,0.082
2043.331,0.082
2043.391,0.082
2043.452,0.082
2043.512,0.082
2043.572,0.082
2043.632,0.083
2043.693,0.083
2043.753,0.082
2043.813,0.082
2043.873,0.082
2043.934,0.082
2043.994,0.082
2044.054,0.082
2044.114,0.082
2044.175,0.082
2044.235,0.082
2044.295,0.082
2044.355,0.082
2044.416,0.082
2044.476,0.082
2044.536,0.082
2044.597,0.083
2044.657,0.083
2044.717,0.082
2044.777,0.082
2044.838,0.082
2044.898,0.082
2044.958,0.082
2045.018,0.083
2045.079,0.083
2045.139,0.083
2045.199,0.084
2045.259,0.086
2045.320,0.088
2045.380,0.092
2045.440,0.098
2045.500,0.104
2045.561,0.110
2045.621,0.116
2045.681,0.121
2045.742,0.126
2045.802,0.131
2045.862,0.137
2045.922,0.144
2045.983,0.153
2046.043,0.161
2046.103,0.167
2046.163,0.169
2046.224,0.167
2046.284,0.159
2046.344,0.147
2046.404,0.133
2046.465,0.119
2046.525,0.106
2046.585,0.097
2046.646,0.091
2046.706,0.087
2046.766,0.085
2046.826,0.084
2046.887,0.084
2046.947,0.084
2047.007,0.083
2047.067,0.083
2047.128,0.083
2047.188,0.084
2047.248,0.084
2047.308,0.084
2047.369,0.084
2047.429,0.083
2047.489,0.083
2047.549,0.083
2047.610,0.083
2047.670,0.084
2047.730,0.084
2047.791,0.084
2047.851,0.084
2047.911,0.084
2047.971,0.084
2048.031,0.084
2048.092,0.084
2048.152,0.084
2048.212,0.084
2048.273,0.084
2048.333,0.084
2048.393,0.084
2048.453,0.084
2048.514,0.084
2048.574,0.084
2048.634,0.084
2048.695,0.084
2048.755,0.084
2048.815,0.084
2048.875,0.084
2048.936,0.084
2048.996,0.084
2049.056,0.084
2049.116,0.084
2049.177,0.085
2049.237,0.085
2049.297,0.087
2049.357,0.089
2049.418,0.094
2049.478,0.099
2049.538,0.106
2049.598,0.113
2049.659,0.120
2049.719,0.125
2049.779,0.127
2049.840,0.127
2049.900,0.124
2049.960,0.119
2050.020,0.113
2050.081,0.106
2050.141,0.101
2050.201,0.097
2050.261,0.096
2050.322,0.098
2050.382,0.103
2050.442,0.112
2050.502,0.126
2050.563,0.141
2050.623,0.157
2050.683,0.170
2050.743,0.179
2050.804,0.179
2050.864,0.173
2050.924,0.160
2050.985,0.144
2051.045,0.128
2051.105,0.113
2051.165,0.102
2051.226,0.095
2051.286,0.090
2051.346,0.088
2051.406,0.087
2051.467,0.086
2051.527,0.086
2051.587,0.086
2051.647,0.085
2051.708,0.085
2051.768,0.086
2051.828,0.086
2051.888,0.086
2051.949,0.086
2052.009,0.085
2052.069,0.085
2052.130,0.086
2052.190,0.086
2052.250,0.086
2052.310,0.086
2052.371,0.086
2052.431,0.086
2052.491,0.086
2052.552,0.085
2052.612,0.085
2052.672,0.085
2052.732,0.086
2052.792,0.086
2052.853,0.086
2052.913,0.085
2052.973,0.085
2053.034,0.085
2053.094,0.085
2053.154,0.085
2053.214,0.086
2053.275,0.087
2053.335,0.089
2053.395,0.092
2053.455,0.097
2053.516,0.103
2053.576,0.111
2053.636,0.119
2053.697,0.126
2053.757,0.132
2053.817,0.134
2053.877,0.133
2053.938,0.128
2053.998,0.122
2054.058,0.114
2054.118,0.107
2054.179,0.100
2054.239,0.095
2054.299,0.092
2054.359,0.089
2054.420,0.088
2054.480,0.087
2054.540,0.087
2054.600,0.087
2054.661,0.087
2054.721,0.089
2054.781,0.091
2054.842,0.095
2054.902,0.102
2054.962,0.113
2055.022,0.128
2055.083,0.146
2055.143,0.166
2055.203,0.184
2055.263,0.197
2055.324,0.202
2055.384,0.198
2055.444,0.185
2055.504,0.167
2055.565,0.147
2055.625,0.129
2055.685,0.114
2055.745,0.103
2055.806,0.096
2055.866,0.092
2055.926,0.090
2055.987,0.089
2056.047,0.088
2056.107,0.088
2056.167,0.088
2056.228,0.088
2056.288,0.089
2056.348,0.089
2056.408,0.089
2056.469,0.089
2056.529,0.089
2056.589,0.089
2056.649,0.089
2056.710,0.089
2056.770,0.089
2056.830,0.089
2056.890,0.089
2056.951,0.089
2057.011,0.088
2057.071,0.088
2057.132,0.088
2057.192,0.089
2057.252,0.090
2057.312,0.092
2057.373,0.095
2057.433,0.099
2057.493,0.106
2057.553,0.114
2057.614,0.123
2057.674,0.132
2057.734,0.138
2057.794,0.142
2057.855,0.141
2057.915,0.137
2057.975,0.129
2058.036,0.120
2058.096,0.112
2058.156,0.104
2058.216,0.098
2058.277,0.094
2058.337,0.092
2058.397,0.090
2058.457,0.089
2058.518,0.089
2058.578,0.089
2058.638,0.089
2058.698,0.089
2058.759,0.089
2058.819,0.089
2058.879,0.089
2058.939,0.089
2059.000,0.089
2059.060,0.089
2059.120,0.089
2059.181,0.090
2059.241,0.092
2059.301,0.094
2059.361,0.100
2059.422,0.108
2059.482,0.122
2059.542,0.140
2059.602,0.161
2059.663,0.185
2059.723,0.206
2059.783,0.221
2059.844,0.226
2059.904,0.219
2059.964,0.203
2060.024,0.181
2060.084,0.158
2060.145,0.136
2060.205,0.118
2060.265,0.106
2060.326,0.097
2060.386,0.092
2060.446,0.090
2060.506,0.089
2060.567,0.088
2060.627,0.088
2060.687,0.088
2060.747,0.088
2060.808,0.088
2060.868,0.087
2060.928,0.087
2060.989,0.087
2061.049,0.086
2061.109,0.086
2061.169,0.086
2061.229,0.087
2061.290,0.089
2061.350,0.093
2061.410,0.099
2061.471,0.106
2061.531,0.116
2061.591,0.125
2061.651,0.134
2061.712,0.140
2061.772,0.143
2061.832,0.140
2061.893,0.134
2061.953,0.125
2062.013,0.115
2062.073,0.106
2062.134,0.098
2062.194,0.093
2062.254,0.089
2062.314,0.088
2062.375,0.087
2062.435,0.086
2062.495,0.086
2062.555,0.086
2062.616,0.086
2062.676,0.086
2062.736,0.086
2062.796,0.086
2062.857,0.086
2062.917,0.086
2062.977,0.086
2063.038,0.086
2063.098,0.086
2063.158,0.087
2063.218,0.087
2063.279,0.087
2063.339,0.087
2063.399,0.087
2063.459,0.087
2063.520,0.087
2063.580,0.088
2063.640,0.089
2063.700,0.091
2063.761,0.094
2063.821,0.099
2063.881,0.108
2063.941,0.122
2064.002,0.141
2064.062,0.165
2064.122,0.193
2064.183,0.220
2064.243,0.241
2064.303,0.252
2064.363,0.250
2064.424,0.236
2064.484,0.212
2064.544,0.185
2064.604,0.158
2064.665,0.135
2064.725,0.117
2064.785,0.105
2064.845,0.097
2064.906,0.093
2064.966,0.090
2065.026,0.089
2065.086,0.089
2065.147,0.089
2065.207,0.091
2065.267,0.094
2065.328,0.099
2065.388,0.106
2065.448,0.115
2065.508,0.125
2065.569,0.134
2065.629,0.140
2065.689,0.143
2065.750,0.141
2065.810,0.134
2065.870,0.125
2065.930,0.115
2065.990,0.105
2066.051,0.097
2066.111,0.091
2066.171,0.088
2066.231,0.086
2066.292,0.085
2066.352,0.085
2066.412,0.085
2066.473,0.085
2066.533,0.084
2066.593,0.084
2066.653,0.085
2066.714,0.085
2066.774,0.085
2066.834,0.085
2066.895,0.085
2066.955,0.085
2067.015,0.085
2067.075,0.085
2067.135,0.086
2067.196,0.086
2067.256,0.087
2067.316,0.087
2067.376,0.086
2067.437,0.086
2067.497,0.086
2067.557,0.086
2067.618,0.087
2067.678,0.087
2067.738,0.087
2067.798,0.087
2067.859,0.086
2067.919,0.086
2067.979,0.087
2068.040,0.087
2068.100,0.088
2068.160,0.091
2068.220,0.095
2068.281,0.102
2068.341,0.113
2068.401,0.130
2068.461,0.154
2068.521,0.183
2068.582,0.215
2068.642,0.246
2068.702,0.269
2068.763,0.280
2068.823,0.274
2068.883,0.255
2068.943,0.226
2069.004,0.194
2069.064,0.165
2069.124,0.143
2069.185,0.128
2069.245,0.120
2069.305,0.119
2069.365,0.123
2069.426,0.129
2069.486,0.135
2069.546,0.138
2069.606,0.138
2069.667,0.134
2069.727,0.127
2069.787,0.117
2069.847,0.108
2069.908,0.099
2069.968,0.093
2070.028,0.088
2070.088,0.085
2070.149,0.084
2070.209,0.084
2070.269,0.084
2070.330,0.084
2070.390,0.083
2070.450,0.083
2070.510,0.083
2070.571,0.083
2070.631,0.083
2070.691,0.084
2070.751,0.083
2070.812,0.083
2070.872,0.083
2070.932,0.083
2070.992,0.083
2071.053,0.083
2071.113,0.083
2071.173,0.083
2071.233,0.083
2071.294,0.083
2071.354,0.083
2071.414,0.083
2071.475,0.083
2071.535,0.083
2071.595,0.083
2071.655,0.084
2071.716,0.084
2071.776,0.083
2071.836,0.083
2071.896,0.083
2071.957,0.084
2072.017,0.084
2072.077,0.085
2072.137,0.085
2072.198,0.085
2072.258,0.085
2072.318,0.086
2072.378,0.086
2072.439,0.087
2072.499,0.089
2072.559,0.092
2072.620,0.096
2072.680,0.103
2072.740,0.115
2072.800,0.133
2072.861,0.158
2072.921,0.191
2072.981,0.230
2073.042,0.273
2073.102,0.313
2073.162,0.343
2073.222,0.357
2073.282,0.350
2073.343,0.326
2073.403,0.290
2073.463,0.249
2073.523,0.210
2073.584,0.176
2073.644,0.148
2073.704,0.127
2073.765,0.111
2073.825,0.100
2073.885,0.094
2073.945,0.090
2074.006,0.088
2074.066,0.086
2074.126,0.086
2074.187,0.085
2074.247,0.085
2074.307,0.084
2074.367,0.084
2074.427,0.084
2074.488,0.084
2074.548,0.084
2074.608,0.084
2074.668,0.084
2074.729,0.084
2074.789,0.083
2074.849,0.083
2074.910,0.083
2074.970,0.083
2075.030,0.084
2075.090,0.084
2075.151,0.083
2075.211,0.083
2075.271,0.083
2075.332,0.083
2075.392,0.083
2075.452,0.083
2075.512,0.083
2075.573,0.083
2075.633,0.083
2075.693,0.083
2075.753,0.083
2075.813,0.083
2075.874,0.083
2075.934,0.084
2075.994,0.084
2076.055,0.084
2076.115,0.084
2076.175,0.084
2076.235,0.084
2076.296,0.084
2076.356,0.085
2076.416,0.085
2076.477,0.086
2076.537,0.086
2076.597,0.087
2076.657,0.087
2076.718,0.089
2076.778,0.091
2076.838,0.096
2076.898,0.104
2076.958,0.114
2077.019,0.129
2077.079,0.149
2077.139,0.175
2077.200,0.207
2077.260,0.244
2077.320,0.285
2077.380,0.326
2077.441,0.360
2077.501,0.380
2077.561,0.380
2077.622,0.360
2077.682,0.323
2077.742,0.279
2077.802,0.234
2077.863,0.193
2077.923,0.160
2077.983,0.135
2078.043,0.117
2078.104,0.105
2078.164,0.097
2078.224,0.093
2078.284,0.091
2078.345,0.089
2078.405,0.088
2078.465,0.087
2078.525,0.086
2078.586,0.086
2078.646,0.085
2078.706,0.085
2078.767,0.085
2078.827,0.085
2078.887,0.085
2078.947,0.084
2079.008,0.084
2079.068,0.084
2079.128,0.084
2079.188,0.084
2079.249,0.084
2079.309,0.084
2079.369,0.084
2079.429,0.084
2079.490,0.084
2079.550,0.084
2079.610,0.084
2079.670,0.084
2079.731,0.084
2079.791,0.084
2079.851,0.084
2079.912,0.084
2079.972,0.084
2080.032,0.084
2080.092,0.084
2080.153,0.084
2080.213,0.084
2080.273,0.085
2080.333,0.085
2080.394,0.085
2080.454,0.085
2080.514,0.086
2080.574,0.088
2080.635,0.091
2080.695,0.096
2080.755,0.103
2080.815,0.111
2080.876,0.120
2080.936,0.129
2080.996,0.136
2081.057,0.140
2081.117,0.141
2081.177,0.139
2081.237,0.135
2081.298,0.130
2081.358,0.128
2081.418,0.131
2081.479,0.141
2081.539,0.160
2081.599,0.189
2081.659,0.227
2081.719,0.272
2081.780,0.318
2081.840,0.357
2081.900,0.379
2081.960,0.377
2082.021,0.352
2082.081,0.311
2082.141,0.264
2082.202,0.219
2082.262,0.180
2082.322,0.150
2082.382,0.128
2082.443,0.113
2082.503,0.103
2082.563,0.098
2082.624,0.094
2082.684,0.092
2082.744,0.090
2082.804,0.089
2082.865,0.088
2082.925,0.087
2082.985,0.087
2083.045,0.087
2083.105,0.086
2083.166,0.086
2083.226,0.085
2083.286,0.085
2083.347,0.085
2083.407,0.085
2083.467,0.085
2083.527,0.085
2083.588,0.085
2083.648,0.085
2083.708,0.085
2083.769,0.085
2083.829,0.084
2083.889,0.084
2083.949,0.084
2084.010,0.085
2084.070,0.085
2084.130,0.085
2084.190,0.085
2084.250,0.085
2084.311,0.086
2084.371,0.088
2084.431,0.091
2084.492,0.096
2084.552,0.102
2084.612,0.109
2084.672,0.116
2084.733,0.122
2084.793,0.126
2084.853,0.127
2084.914,0.126
2084.974,0.122
2085.034,0.117
2085.094,0.111
2085.155,0.105
2085.215,0.100
2085.275,0.097
2085.335,0.095
2085.396,0.095
2085.456,0.096
2085.516,0.097
2085.576,0.100
2085.637,0.105
2085.697,0.114
2085.757,0.127
2085.817,0.147
2085.878,0.176
2085.938,0.214
2085.998,0.261
2086.059,0.312
2086.119,0.363
2086.179,0.401
2086.239,0.418
2086.300,0.407
2086.360,0.372
2086.420,0.323
2086.480,0.271
2086.541,0.223
2086.601,0.183
2086.661,0.152
2086.721,0.130
2086.782,0.115
2086.842,0.106
2086.902,0.100
2086.962,0.096
2087.023,0.094
2087.083,0.092
2087.143,0.090
2087.204,0.089
2087.264,0.089
2087.324,0.088
2087.384,0.088
2087.445,0.087
2087.505,0.087
2087.565,0.086
2087.625,0.086
2087.686,0.086
2087.746,0.086
2087.806,0.086
2087.866,0.086
2087.927,0.086
2087.987,0.086
2088.047,0.087
2088.107,0.088
2088.168,0.090
2088.228,0.093
2088.288,0.097
2088.349,0.102
2088.409,0.107
2088.469,0.111
2088.529,0.114
2088.590,0.115
2088.650,0.114
2088.710,0.111
2088.771,0.107
2088.831,0.102
2088.891,0.098
2088.951,0.094
2089.011,0.091
2089.072,0.090
2089.132,0.090
2089.192,0.090
2089.253,0.091
2089.313,0.091
2089.373,0.092
2089.433,0.092
2089.494,0.092
2089.554,0.092
2089.614,0.092
2089.674,0.093
2089.735,0.095
2089.795,0.098
2089.855,0.102
2089.916,0.108
2089.976,0.117
2090.036,0.132
2090.096,0.155
2090.156,0.186
2090.217,0.227
2090.277,0.277
2090.337,0.333
2090.398,0.389
2090.458,0.433
2090.518,0.455
2090.578,0.446
2090.639,0.410
2090.699,0.358
2090.759,0.300
2090.819,0.247
2090.880,0.202
2090.940,0.167
2091.000,0.141
2091.061,0.124
2091.121,0.112
2091.181,0.105
2091.241,0.100
2091.302,0.097
2091.362,0.094
2091.422,0.092
2091.482,0.091
2091.543,0.090
2091.603,0.090
2091.663,0.089
2091.723,0.089
2091.784,0.088
2091.844,0.088
2091.904,0.089
2091.964,0.091
2092.025,0.093
2092.085,0.096
2092.145,0.099
2092.206,0.101
2092.266,0.102
2092.326,0.102
2092.386,0.101
2092.447,0.099
2092.507,0.097
2092.567,0.094
2092.627,0.091
2092.688,0.089
2092.748,0.088
2092.808,0.087
2092.868,0.087
2092.929,0.087
2092.989,0.088
2093.049,0.089
2093.109,0.089
2093.170,0.090
2093.230,0.090
2093.290,0.090
2093.351,0.090
2093.411,0.090
2093.471,0.090
2093.531,0.090
2093.592,0.090
2093.652,0.091
2093.712,0.091
2093.772,0.092
2093.833,0.093
2093.893,0.094
2093.953,0.096
2094.013,0.099
2094.074,0.103
2094.134,0.109
2094.194,0.117
2094.255,0.130
2094.315,0.149
2094.375,0.177
2094.435,0.215
2094.496,0.262
2094.556,0.320
2094.616,0.381
2094.676,0.439
2094.737,0.480
2094.797,0.490
2094.857,0.467
2094.917,0.419
2094.978,0.358
2095.038,0.297
2095.098,0.243
2095.158,0.199
2095.219,0.166
2095.279,0.142
2095.339,0.126
2095.400,0.115
2095.460,0.109
2095.520,0.104
2095.580,0.102
2095.641,0.099
2095.701,0.097
2095.761,0.096
2095.821,0.094
2095.882,0.093
2095.942,0.092
2096.002,0.090
2096.063,0.089
2096.123,0.088
2096.183,0.088
2096.243,0.088
2096.303,0.088
2096.364,0.088
2096.424,0.087
2096.484,0.087
2096.545,0.087
2096.605,0.087
2096.665,0.087
2096.725,0.087
2096.786,0.087
2096.846,0.088
2096.906,0.088
2096.966,0.089
2097.027,0.089
2097.087,0.089
2097.147,0.090
2097.208,0.090
2097.268,0.090
2097.328,0.090
2097.388,0.090
2097.448,0.089
2097.509,0.089
2097.569,0.089
2097.629,0.089
2097.690,0.089
2097.750,0.090
2097.810,0.091
2097.870,0.092
2097.931,0.093
2097.991,0.094
2098.051,0.095
2098.112,0.096
2098.172,0.099
2098.232,0.102
2098.292,0.106
2098.353,0.113
2098.413,0.123
2098.473,0.137
2098.533,0.158
2098.594,0.188
2098.654,0.227
2098.714,0.278
2098.774,0.339
2098.835,0.406
2098.895,0.470
2098.955,0.516
2099.015,0.531
2099.076,0.509
2099.136,0.459
2099.196,0.395
2099.257,0.332
2099.317,0.275
2099.377,0.229
2099.437,0.194
2099.498,0.169
2099.558,0.151
2099.618,0.138
2099.678,0.128
2099.739,0.120
2099.799,0.113
2099.859,0.108
2099.919,0.103
2099.980,0.099
2100.040,0.096
2100.100,0.093
2100.160,0.092
2100.221,0.091
2100.281,0.090
2100.341,0.089
2100.402,0.089
2100.462,0.089
2100.522,0.089
2100.582,0.089
2100.643,0.089
2100.703,0.089
2100.763,0.089
2100.823,0.089
2100.884,0.090
2100.944,0.090
2101.004,0.090
2101.064,0.090
2101.125,0.090
2101.185,0.090
2101.245,0.089
2101.305,0.089
2101.366,0.089
2101.426,0.088
2101.486,0.089
2101.547,0.089
2101.607,0.089
2101.667,0.089
2101.727,0.090
2101.788,0.090
2101.848,0.090
2101.908,0.091
2101.969,0.092
2102.029,0.093
2102.089,0.094
2102.149,0.095
2102.209,0.096
2102.270,0.098
2102.330,0.100
2102.390,0.104
2102.450,0.109
2102.511,0.116
2102.571,0.126
2102.631,0.141
2102.692,0.162
2102.752,0.191
2102.812,0.229
2102.872,0.278
2102.933,0.338
2102.993,0.406
2103.053,0.475
2103.114,0.533
2103.174,0.561
2103.234,0.551
2103.294,0.506
2103.354,0.440
2103.415,0.369
2103.475,0.303
2103.535,0.248
2103.595,0.204
2103.656,0.171
2103.716,0.147
2103.776,0.130
2103.837,0.119
2103.897,0.111
2103.957,0.106
2104.017,0.102
2104.078,0.099
2104.138,0.097
2104.198,0.096
2104.259,0.095
2104.319,0.094
2104.379,0.093
2104.439,0.092
2104.500,0.091
2104.560,0.091
2104.620,0.091
2104.680,0.091
2104.740,0.091
2104.801,0.091
2104.861,0.091
2104.921,0.091
2104.982,0.090
2105.042,0.090
2105.102,0.090
2105.162,0.089
2105.223,0.089
2105.283,0.089
2105.343,0.089
2105.404,0.089
2105.464,0.089
2105.524,0.089
2105.584,0.089
2105.645,0.089
2105.705,0.090
2105.765,0.090
2105.825,0.090
2105.885,0.091
2105.946,0.092
2106.006,0.094
2106.066,0.096
2106.127,0.099
2106.187,0.102
2106.247,0.106
2106.307,0.109
2106.368,0.113
2106.428,0.117
2106.488,0.123
2106.549,0.130
2106.609,0.139
2106.669,0.151
2106.729,0.165
2106.790,0.183
2106.850,0.205
2106.910,0.233
2106.970,0.269
2107.031,0.316
2107.091,0.372
2107.151,0.437
2107.211,0.502
2107.272,0.556
2107.332,0.582
2107.392,0.568
2107.452,0.519
2107.513,0.449
2107.573,0.376
2107.633,0.309
2107.694,0.252
2107.754,0.208
2107.814,0.174
2107.874,0.150
2107.935,0.133
2107.995,0.121
2108.055,0.113
2108.115,0.108
2108.176,0.104
2108.236,0.101
2108.296,0.099
2108.356,0.098
2108.417,0.096
2108.477,0.095
2108.537,0.094
2108.597,0.094
2108.658,0.093
2108.718,0.093
2108.778,0.092
2108.839,0.092
2108.899,0.092
2108.959,0.091
2109.019,0.090
2109.080,0.090
2109.140,0.090
2109.200,0.089
2109.260,0.090
2109.321,0.090
2109.381,0.090
2109.441,0.091
2109.501,0.092
2109.562,0.094
2109.622,0.096
2109.682,0.099
2109.742,0.101
2109.803,0.104
2109.863,0.106
2109.923,0.108
2109.984,0.111
2110.044,0.115
2110.104,0.120
2110.164,0.126
2110.225,0.132
2110.285,0.137
2110.345,0.140
2110.406,0.141
2110.466,0.138
2110.526,0.134
2110.586,0.129
2110.646,0.124
2110.707,0.123
2110.767,0.124
2110.827,0.130
2110.887,0.142
2110.948,0.160
2111.008,0.186
2111.068,0.223
2111.129,0.271
2111.189,0.331
2111.249,0.402
2111.309,0.478
2111.370,0.547
2111.430,0.591
2111.490,0.594
2111.551,0.556
2111.611,0.489
2111.671,0.414
2111.731,0.342
2111.792,0.280
2111.852,0.230
2111.912,0.191
2111.972,0.163
2112.032,0.142
2112.093,0.128
2112.153,0.118
2112.213,0.112
2112.274,0.107
2112.334,0.104
2112.394,0.102
2112.454,0.100
2112.515,0.098
2112.575,0.096
2112.635,0.095
2112.696,0.094
2112.756,0.094
2112.816,0.093
2112.876,0.093
2112.937,0.094
2112.997,0.096
2113.057,0.097
2113.117,0.100
2113.177,0.102
2113.238,0.104
2113.298,0.105
2113.358,0.106
2113.419,0.107
2113.479,0.109
2113.539,0.112
2113.599,0.116
2113.660,0.122
2113.720,0.129
2113.780,0.134
2113.841,0.138
2113.901,0.138
2113.961,0.135
2114.021,0.129
2114.082,0.122
2114.142,0.114
2114.202,0.107
2114.262,0.102
2114.323,0.099
2114.383,0.098
2114.443,0.098
2114.503,0.099
2114.564,0.100
2114.624,0.102
2114.684,0.105
2114.744,0.108
2114.805,0.113
2114.865,0.121
2114.925,0.131
2114.986,0.146
2115.046,0.167
2115.106,0.197
2115.166,0.236
2115.227,0.288
2115.287,0.352
2115.347,0.425
2115.407,0.502
2115.468,0.568
2115.528,0.605
2115.588,0.600
2115.648,0.553
2115.709,0.483
2115.769,0.406
2115.829,0.334
2115.889,0.273
2115.950,0.225
2116.010,0.187
2116.070,0.160
2116.131,0.141
2116.191,0.128
2116.251,0.119
2116.311,0.113
2116.372,0.110
2116.432,0.108
2116.492,0.108
2116.552,0.109
2116.613,0.109
2116.673,0.110
2116.733,0.110
2116.793,0.110
2116.854,0.109
2116.914,0.109
2116.974,0.111
2117.034,0.114
2117.095,0.119
2117.155,0.126
2117.215,0.133
2117.276,0.138
2117.336,0.140
2117.396,0.139
2117.456,0.134
2117.517,0.127
2117.577,0.118
2117.637,0.110
2117.698,0.103
2117.758,0.097
2117.818,0.094
2117.878,0.092
2117.938,0.091
2117.999,0.091
2118.059,0.092
2118.119,0.092
2118.179,0.093
2118.240,0.093
2118.300,0.094
2118.360,0.095
2118.421,0.096
2118.481,0.097
2118.541,0.098
2118.601,0.100
2118.662,0.102
2118.722,0.104
2118.782,0.108
2118.843,0.113
2118.903,0.119
2118.963,0.129
2119.023,0.142
2119.083,0.162
2119.144,0.190
2119.204,0.227
2119.264,0.276
2119.324,0.337
2119.385,0.409
2119.445,0.485
2119.505,0.556
2119.566,0.602
2119.626,0.608
2119.686,0.572
2119.746,0.508
2119.807,0.433
2119.867,0.362
2119.927,0.300
2119.988,0.250
2120.048,0.212
2120.108,0.183
2120.168,0.162
2120.229,0.146
2120.289,0.135
2120.349,0.128
2120.409,0.125
2120.469,0.125
2120.530,0.128
2120.590,0.133
2120.650,0.139
2120.711,0.144
2120.771,0.146
2120.831,0.145
2120.891,0.139
2120.952,0.132
2121.012,0.122
2121.072,0.113
2121.133,0.105
2121.193,0.099
2121.253,0.095
2121.313,0.093
2121.374,0.091
2121.434,0.090
2121.494,0.090
2121.554,0.090
2121.615,0.090
2121.675,0.090
2121.735,0.090
2121.795,0.090
2121.856,0.090
2121.916,0.090
2121.976,0.091
2122.036,0.091
2122.097,0.092
2122.157,0.092
2122.217,0.093
2122.278,0.093
2122.338,0.094
2122.398,0.095
2122.458,0.096
2122.519,0.097
2122.579,0.098
2122.639,0.100
2122.699,0.102
2122.760,0.105
2122.820,0.109
2122.880,0.114
2122.940,0.121
2123.001,0.132
2123.061,0.147
2123.121,0.169
2123.181,0.199
2123.242,0.240
2123.302,0.292
2123.362,0.357
2123.423,0.430
2123.483,0.506
2123.543,0.570
2123.603,0.604
2123.664,0.596
2123.724,0.550
2123.784,0.484
2123.844,0.414
2123.905,0.352
2123.965,0.301
2124.025,0.261
2124.085,0.232
2124.146,0.209
2124.206,0.191
2124.266,0.174
2124.326,0.159
2124.387,0.144
2124.447,0.131
2124.507,0.120
2124.568,0.111
2124.628,0.104
2124.688,0.100
2124.748,0.097
2124.809,0.095
2124.869,0.094
2124.929,0.093
2124.990,0.092
2125.050,0.092
2125.110,0.092
2125.170,0.091
2125.230,0.091
2125.291,0.091
2125.351,0.090
2125.411,0.090
2125.472,0.090
2125.532,0.090
2125.592,0.090
2125.652,0.090
2125.713,0.090
2125.773,0.090
2125.833,0.090
2125.893,0.090
2125.954,0.090
2126.014,0.091
2126.074,0.091
2126.135,0.092
2126.195,0.092
2126.255,0.092
2126.315,0.093
2126.375,0.094
2126.436,0.096
2126.496,0.099
2126.556,0.102
2126.617,0.106
2126.677,0.111
2126.737,0.115
2126.797,0.120
2126.858,0.125
2126.918,0.132
2126.978,0.140
2127.038,0.153
2127.099,0.171
2127.159,0.197
2127.219,0.233
2127.280,0.281
2127.340,0.341
2127.400,0.411
2127.460,0.484
2127.521,0.546
2127.581,0.581
2127.641,0.575
2127.701,0.529
2127.762,0.461
2127.822,0.388
2127.882,0.319
2127.942,0.261
2128.003,0.214
2128.063,0.179
2128.123,0.153
2128.183,0.135
2128.244,0.122
2128.304,0.114
2128.364,0.108
2128.425,0.104
2128.485,0.101
2128.545,0.099
2128.605,0.097
2128.666,0.095
2128.726,0.094
2128.786,0.093
2128.846,0.092
2128.907,0.092
2128.967,0.091
2129.027,0.091
2129.087,0.091
2129.148,0.090
2129.208,0.090
2129.268,0.089
2129.328,0.089
2129.389,0.089
2129.449,0.089
2129.509,0.089
2129.570,0.089
2129.630,0.089
2129.690,0.090
2129.750,0.091
2129.811,0.093
2129.871,0.095
2129.931,0.097
2129.991,0.100
2130.052,0.102
2130.112,0.104
2130.172,0.104
2130.232,0.103
2130.293,0.103
2130.353,0.102
2130.413,0.102
2130.474,0.103
2130.534,0.107
2130.594,0.113
2130.654,0.121
2130.715,0.132
2130.775,0.143
2130.835,0.155
2130.895,0.166
2130.956,0.178
2131.016,0.190
2131.076,0.206
2131.136,0.228
2131.197,0.260
2131.257,0.303
2131.317,0.357
2131.377,0.419
2131.438,0.480
2131.498,0.525
2131.558,0.538
2131.619,0.515
2131.679,0.462
2131.739,0.395
2131.799,0.328
2131.860,0.269
2131.920,0.220
2131.980,0.182
2132.040,0.154
2132.101,0.135
2132.161,0.121
2132.221,0.112
2132.281,0.106
2132.342,0.102
2132.402,0.099
2132.462,0.097
2132.522,0.095
2132.583,0.094
2132.643,0.093
2132.703,0.092
2132.764,0.091
2132.824,0.090
2132.884,0.090
2132.944,0.090
2133.005,0.091
2133.065,0.092
2133.125,0.093
2133.185,0.095
2133.246,0.097
2133.306,0.098
2133.366,0.100
2133.427,0.100
2133.487,0.099
2133.547,0.098
2133.607,0.096
2133.667,0.094
2133.728,0.093
2133.788,0.094
2133.848,0.097
2133.909,0.102
2133.969,0.109
2134.029,0.117
2134.089,0.125
2134.150,0.132
2134.210,0.136
2134.270,0.137
2134.331,0.135
2134.391,0.130
2134.451,0.123
2134.511,0.116
2134.572,0.110
2134.632,0.106
2134.692,0.104
2134.752,0.105
2134.813,0.109
2134.873,0.117
2134.933,0.129
2134.993,0.147
2135.054,0.173
2135.114,0.208
2135.174,0.253
2135.234,0.308
2135.295,0.368
2135.355,0.423
2135.415,0.463
2135.476,0.474
2135.536,0.453
2135.596,0.406
2135.656,0.348
2135.717,0.289
2135.777,0.237
2135.837,0.194
2135.897,0.162
2135.958,0.138
2136.018,0.121
2136.078,0.111
2136.138,0.104
2136.199,0.100
2136.259,0.098
2136.319,0.098
2136.379,0.098
2136.440,0.098
2136.500,0.099
2136.560,0.099
2136.621,0.099
2136.681,0.099
2136.741,0.097
2136.801,0.095
2136.862,0.093
2136.922,0.092
2136.982,0.091
2137.042,0.091
2137.103,0.093
2137.163,0.097
2137.223,0.103
2137.283,0.110
2137.344,0.117
2137.404,0.123
2137.464,0.127
2137.524,0.128
2137.585,0.126
2137.645,0.121
2137.705,0.115
2137.766,0.108
2137.826,0.102
2137.886,0.097
2137.946,0.093
2138.007,0.091
2138.067,0.090
2138.127,0.090
2138.188,0.089
2138.248,0.089
2138.308,0.089
2138.368,0.089
2138.428,0.089
2138.489,0.090
2138.549,0.091
2138.609,0.093
2138.669,0.096
2138.730,0.100
2138.790,0.107
2138.850,0.118
2138.911,0.134
2138.971,0.158
2139.031,0.190
2139.091,0.230
2139.152,0.275
2139.212,0.319
2139.272,0.354
2139.333,0.371
2139.393,0.366
2139.453,0.339
2139.513,0.300
2139.573,0.256
2139.634,0.214
2139.694,0.179
2139.754,0.152
2139.814,0.132
2139.875,0.118
2139.935,0.109
2139.995,0.102
2140.056,0.098
2140.116,0.094
2140.176,0.092
2140.236,0.091
2140.297,0.091
2140.357,0.093
2140.417,0.097
2140.478,0.103
2140.538,0.109
2140.598,0.115
2140.658,0.120
2140.719,0.122
2140.779,0.122
2140.839,0.119
2140.899,0.114
2140.959,0.108
2141.020,0.101
2141.080,0.095
2141.140,0.090
2141.201,0.088
2141.261,0.086
2141.321,0.086
2141.381,0.087
2141.442,0.087
2141.502,0.087
2141.562,0.086
2141.623,0.086
2141.683,0.085
2141.743,0.085
2141.803,0.084
2141.864,0.084
2141.924,0.084
2141.984,0.084
2142.044,0.083
2142.104,0.083
2142.165,0.083
2142.225,0.083
2142.285,0.084
2142.346,0.084
2142.406,0.084
2142.466,0.084
2142.526,0.084
2142.587,0.084
2142.647,0.085
2142.707,0.086
2142.768,0.088
2142.828,0.089
2142.888,0.090
2142.948,0.091
2143.009,0.091
2143.069,0.090
2143.129,0.089
2143.189,0.088
2143.250,0.087
2143.310,0.086
2143.370,0.085
2143.430,0.085
2143.491,0.086
2143.551,0.088
2143.611,0.092
2143.671,0.097
2143.732,0.103
2143.792,0.109
2143.852,0.114
2143.913,0.117
2143.973,0.118
2144.033,0.115
2144.093,0.111
2144.154,0.105
2144.214,0.099
2144.274,0.094
2144.334,0.090
2144.395,0.087
2144.455,0.085
2144.515,0.084
2144.575,0.084
2144.636,0.085
2144.696,0.085
2144.756,0.086
2144.816,0.086
2144.877,0.087
2144.937,0.087
2144.997,0.087
2145.058,0.087
2145.118,0.087
2145.178,0.086
2145.238,0.086
2145.299,0.085
2145.359,0.085
2145.419,0.085
2145.479,0.085
2145.540,0.085
2145.600,0.085
2145.660,0.086
2145.720,0.087
2145.781,0.088
2145.841,0.090
2145.901,0.091
2145.961,0.093
2146.022,0.094
2146.082,0.095
2146.142,0.096
2146.203,0.096
2146.263,0.097
2146.323,0.099
2146.383,0.102
2146.444,0.108
2146.504,0.118
2146.564,0.134
2146.625,0.158
2146.685,0.191
2146.745,0.233
2146.805,0.282
2146.865,0.332
2146.926,0.374
2146.986,0.399
2147.046,0.397
2147.106,0.371
2147.167,0.327
2147.227,0.276
2147.287,0.228
2147.348,0.186
2147.408,0.154
2147.468,0.130
2147.528,0.114
2147.589,0.104
2147.649,0.098
2147.709,0.095
2147.770,0.092
2147.830,0.091
2147.890,0.090
2147.950,0.089
2148.010,0.089
2148.071,0.089
2148.131,0.089
2148.191,0.089
2148.251,0.090
2148.312,0.090
2148.372,0.090
2148.432,0.090
2148.493,0.089
2148.553,0.089
2148.613,0.089
2148.673,0.088
2148.734,0.088
2148.794,0.087
2148.854,0.088
2148.915,0.088
2148.975,0.089
2149.035,0.090
2149.095,0.092
2149.156,0.092
2149.216,0.093
2149.276,0.092
2149.336,0.092
2149.396,0.092
2149.457,0.091
2149.517,0.091
2149.577,0.091
2149.638,0.091
2149.698,0.092
2149.758,0.093
2149.818,0.095
2149.879,0.098
2149.939,0.103
2149.999,0.110
2150.060,0.118
2150.120,0.128
2150.180,0.140
2150.240,0.154
2150.301,0.174
2150.361,0.199
2150.421,0.232
2150.481,0.275
2150.542,0.325
2150.602,0.381
2150.662,0.434
2150.722,0.473
2150.783,0.484
2150.843,0.464
2150.903,0.419
2150.963,0.360
2151.024,0.300
2151.084,0.246
2151.144,0.202
2151.205,0.168
2151.265,0.143
2151.325,0.126
2151.385,0.115
2151.446,0.108
2151.506,0.104
2151.566,0.101
2151.626,0.099
2151.687,0.098
2151.747,0.097
2151.807,0.096
2151.867,0.096
2151.928,0.095
2151.988,0.095
2152.048,0.094
2152.108,0.094
2152.169,0.094
2152.229,0.094
2152.289,0.093
2152.350,0.093
2152.410,0.092
2152.470,0.091
2152.530,0.090
2152.591,0.090
2152.651,0.089
2152.711,0.089
2152.771,0.089
2152.832,0.090
2152.892,0.091
2152.952,0.093
2153.012,0.095
2153.073,0.098
2153.133,0.102
2153.193,0.107
2153.253,0.111
2153.314,0.114
2153.374,0.115
2153.434,0.115
2153.495,0.114
2153.555,0.111
2153.615,0.109
2153.675,0.108
2153.736,0.109
2153.796,0.112
2153.856,0.117
2153.917,0.127
2153.977,0.141
2154.037,0.163
2154.097,0.193
2154.157,0.234
2154.218,0.286
2154.278,0.348
2154.338,0.418
2154.398,0.485
2154.459,0.535
2154.519,0.553
2154.579,0.533
2154.640,0.481
2154.700,0.413
2154.760,0.345
2154.820,0.284
2154.881,0.233
2154.941,0.194
2155.001,0.166
2155.062,0.146
2155.122,0.132
2155.182,0.123
2155.242,0.116
2155.302,0.112
2155.363,0.107
2155.423,0.104
2155.483,0.101
2155.543,0.099
2155.604,0.097
2155.664,0.095
2155.724,0.094
2155.785,0.093
2155.845,0.093
2155.905,0.092
2155.965,0.093
2156.026,0.094
2156.086,0.096
2156.146,0.099
2156.207,0.102
2156.267,0.105
2156.327,0.107
2156.387,0.109
2156.448,0.109
2156.508,0.108
2156.568,0.106
2156.628,0.103
2156.688,0.100
2156.749,0.097
2156.809,0.095
2156.869,0.094
2156.930,0.094
2156.990,0.094
2157.050,0.095
2157.110,0.097
2157.171,0.098
2157.231,0.099
2157.291,0.101
2157.352,0.104
2157.412,0.108
2157.472,0.112
2157.532,0.119
2157.593,0.129
2157.653,0.144
2157.713,0.164
2157.773,0.193
2157.834,0.232
2157.894,0.282
2157.954,0.345
2158.014,0.417
2158.075,0.493
2158.135,0.560
2158.195,0.599
2158.255,0.597
2158.316,0.554
2158.376,0.485
2158.436,0.409
2158.497,0.338
2158.557,0.277
2158.617,0.228
2158.677,0.190
2158.738,0.162
2158.798,0.143
2158.858,0.129
2158.918,0.120
2158.979,0.114
2159.039,0.110
2159.099,0.108
2159.159,0.108
2159.220,0.108
2159.280,0.109
2159.340,0.110
2159.400,0.111
2159.461,0.110
2159.521,0.109
2159.581,0.107
2159.642,0.104
2159.702,0.101
2159.762,0.098
2159.822,0.096
2159.883,0.094
2159.943,0.093
2160.003,0.092
2160.063,0.092
2160.124,0.092
2160.184,0.092
2160.244,0.092
2160.304,0.093
2160.365,0.093
2160.425,0.093
2160.485,0.094
2160.545,0.095
2160.606,0.095
2160.666,0.096
2160.726,0.097
2160.787,0.099
2160.847,0.101
2160.907,0.103
2160.967,0.105
2161.028,0.109
2161.088,0.113
2161.148,0.119
2161.208,0.127
2161.269,0.138
2161.329,0.154
2161.389,0.177
2161.449,0.209
2161.510,0.251
2161.570,0.305
2161.630,0.372
2161.691,0.448
2161.751,0.527
2161.811,0.595
2161.871,0.630
2161.932,0.621
2161.992,0.571
2162.052,0.498
2162.112,0.420
2162.173,0.349
2162.233,0.289
2162.293,0.241
2162.354,0.205
2162.414,0.178
2162.474,0.157
2162.534,0.143
2162.594,0.131
2162.655,0.122
2162.715,0.116
2162.775,0.110
2162.836,0.106
2162.896,0.103
2162.956,0.101
2163.016,0.099
2163.077,0.098
2163.137,0.097
2163.197,0.096
2163.257,0.095
2163.318,0.095
2163.378,0.094
2163.438,0.094
2163.499,0.094
2163.559,0.093
2163.619,0.093
2163.679,0.093
2163.740,0.093
2163.800,0.094
2163.860,0.094
2163.920,0.094
2163.981,0.095
2164.041,0.096
2164.101,0.096
2164.161,0.097
2164.222,0.097
2164.282,0.098
2164.342,0.099
2164.402,0.100
2164.463,0.102
2164.523,0.103
2164.583,0.105
2164.644,0.108
2164.704,0.113
2164.764,0.118
2164.824,0.126
2164.885,0.137
2164.945,0.153
2165.005,0.175
2165.065,0.206
2165.126,0.246
2165.186,0.299
2165.246,0.364
2165.306,0.440
2165.367,0.521
2165.427,0.595
2165.487,0.642
2165.547,0.645
2165.608,0.601
2165.668,0.529
2165.728,0.447
2165.789,0.370
2165.849,0.303
2165.909,0.249
2165.969,0.207
2166.030,0.176
2166.090,0.154
2166.150,0.138
2166.210,0.127
2166.271,0.119
2166.331,0.113
2166.391,0.109
2166.451,0.106
2166.512,0.104
2166.572,0.102
2166.632,0.100
2166.693,0.099
2166.753,0.098
2166.813,0.097
2166.873,0.097
2166.934,0.096
2166.994,0.096
2167.054,0.096
2167.114,0.095
2167.175,0.095
2167.235,0.095
2167.295,0.094
2167.355,0.094
2167.416,0.094
2167.476,0.094
2167.536,0.094
2167.596,0.095
2167.657,0.095
2167.717,0.096
2167.777,0.096
2167.838,0.097
2167.898,0.099
2167.958,0.101
2168.018,0.103
2168.079,0.106
2168.139,0.109
2168.199,0.113
2168.259,0.117
2168.320,0.122
2168.380,0.129
2168.440,0.137
2168.500,0.148
2168.561,0.164
2168.621,0.187
2168.681,0.220
2168.741,0.263
2168.802,0.319
2168.862,0.387
2168.922,0.466
2168.983,0.547
2169.043,0.616
2169.103,0.651
2169.163,0.638
2169.224,0.583
2169.284,0.506
2169.344,0.424
2169.404,0.350
2169.465,0.287
2169.525,0.237
2169.585,0.198
2169.646,0.170
2169.706,0.150
2169.766,0.135
2169.826,0.125
2169.886,0.118
2169.947,0.113
2170.007,0.109
2170.067,0.106
2170.128,0.104
2170.188,0.102
2170.248,0.100
2170.308,0.099
2170.369,0.098
2170.429,0.097
2170.489,0.096
2170.550,0.096
2170.610,0.095
2170.670,0.095
2170.730,0.095
2170.791,0.095
2170.851,0.095
2170.911,0.096
2170.971,0.096
2171.031,0.097
2171.092,0.098
2171.152,0.099
2171.212,0.100
2171.273,0.101
2171.333,0.101
2171.393,0.101
2171.453,0.102
2171.514,0.102
2171.574,0.103
2171.634,0.104
2171.695,0.105
2171.755,0.107
2171.815,0.110
2171.875,0.114
2171.936,0.120
2171.996,0.128
2172.056,0.140
2172.116,0.157
2172.177,0.180
2172.237,0.213
2172.297,0.255
2172.357,0.311
2172.418,0.378
2172.478,0.456
2172.538,0.537
2172.598,0.606
2172.659,0.644
2172.719,0.636
2172.779,0.585
2172.840,0.509
2172.900,0.427
2172.960,0.352
2173.020,0.289
2173.081,0.238
2173.141,0.199
2173.201,0.170
2173.261,0.149
2173.322,0.134
2173.382,0.124
2173.442,0.117
2173.502,0.112
2173.563,0.108
2173.623,0.105
2173.683,0.104
2173.743,0.102
2173.804,0.101
2173.864,0.100
2173.924,0.100
2173.985,0.099
2174.045,0.099
2174.105,0.099
2174.165,0.098
2174.226,0.097
2174.286,0.097
2174.346,0.096
2174.406,0.095
2174.467,0.095
2174.527,0.095
2174.587,0.095
2174.647,0.096
2174.708,0.096
2174.768,0.096
2174.828,0.096
2174.888,0.097
2174.949,0.097
2175.009,0.098
2175.069,0.099
2175.130,0.101
2175.190,0.102
2175.250,0.105
2175.310,0.107
2175.371,0.111
2175.431,0.115
2175.491,0.122
2175.552,0.132
2175.612,0.145
2175.672,0.165
2175.732,0.192
2175.792,0.229
2175.853,0.277
2175.913,0.337
2175.973,0.409
2176.033,0.488
2176.094,0.564
2176.154,0.618
2176.214,0.633
2176.275,0.601
2176.335,0.536
2176.395,0.457
2176.455,0.379
2176.516,0.311
2176.576,0.256
2176.636,0.213
2176.697,0.180
2176.757,0.157
2176.817,0.140
2176.877,0.129
2176.938,0.120
2176.998,0.114
2177.058,0.110
2177.118,0.107
2177.178,0.104
2177.239,0.102
2177.299,0.100
2177.359,0.098
2177.420,0.097
2177.480,0.096
2177.540,0.096
2177.600,0.095
2177.661,0.095
2177.721,0.095
2177.781,0.095
2177.842,0.094
2177.902,0.094
2177.962,0.094
2178.022,0.094
2178.083,0.094
2178.143,0.094
2178.203,0.095
2178.263,0.095
2178.323,0.095
2178.384,0.096
2178.444,0.096
2178.504,0.097
2178.565,0.098
2178.625,0.100
2178.685,0.101
2178.745,0.103
2178.806,0.106
2178.866,0.109
2178.926,0.114
2178.987,0.120
2179.047,0.130
2179.107,0.143
2179.167,0.163
2179.228,0.190
2179.288,0.226
2179.348,0.274
2179.408,0.334
2179.469,0.405
2179.529,0.482
2179.589,0.554
2179.649,0.602
2179.710,0.610
2179.770,0.575
2179.830,0.509
2179.890,0.432
2179.951,0.358
2180.011,0.293
2180.071,0.241
2180.132,0.200
2180.192,0.170
2180.252,0.148
2180.312,0.133
2180.373,0.122
2180.433,0.115
2180.493,0.110
2180.553,0.106
2180.614,0.104
2180.674,0.102
2180.734,0.100
2180.794,0.099
2180.855,0.097
2180.915,0.096
2180.975,0.096
2181.035,0.095
2181.096,0.094
2181.156,0.094
2181.216,0.093
2181.277,0.093
2181.337,0.093
2181.397,0.093
2181.457,0.093
2181.518,0.093
2181.578,0.093
2181.638,0.093
2181.698,0.093
2181.759,0.094
2181.819,0.094
2181.879,0.095
2181.939,0.095
2182.000,0.097
2182.060,0.098
2182.120,0.099
2182.180,0.101
2182.241,0.103
2182.301,0.106
2182.361,0.110
2182.422,0.116
2182.482,0.124
2182.542,0.135
2182.602,0.151
2182.663,0.174
2182.723,0.206
2182.783,0.248
2182.844,0.302
2182.904,0.368
2182.964,0.440
2183.024,0.511
2183.084,0.565
2183.145,0.584
2183.205,0.561
2183.265,0.505
2183.325,0.434
2183.386,0.361
2183.446,0.296
2183.506,0.243
2183.567,0.201
2183.627,0.170
2183.687,0.147
2183.747,0.131
2183.808,0.121
2183.868,0.113
2183.928,0.108
2183.989,0.105
2184.049,0.102
2184.109,0.100
2184.169,0.098
2184.229,0.097
2184.290,0.096
2184.350,0.095
2184.410,0.094
2184.470,0.093
2184.531,0.093
2184.591,0.093
2184.651,0.092
2184.712,0.092
2184.772,0.092
2184.832,0.092
2184.892,0.092
2184.953,0.092
2185.013,0.093
2185.073,0.093
2185.134,0.093
2185.194,0.093
2185.254,0.094
2185.314,0.094
2185.375,0.095
2185.435,0.096
2185.495,0.097
2185.555,0.098
2185.615,0.099
2185.676,0.101
2185.736,0.104
2185.796,0.108
2185.857,0.113
2185.917,0.121
2185.977,0.133
2186.037,0.149
2186.098,0.174
2186.158,0.207
2186.218,0.251
2186.279,0.306
2186.339,0.371
2186.399,0.440
2186.459,0.503
2186.520,0.544
2186.580,0.549
2186.640,0.516
2186.700,0.457
2186.760,0.388
2186.821,0.321
2186.881,0.263
2186.941,0.215
2187.002,0.179
2187.062,0.153
2187.122,0.134
2187.182,0.122
2187.243,0.113
2187.303,0.108
2187.363,0.104
2187.424,0.101
2187.484,0.099
2187.544,0.097
2187.604,0.096
2187.665,0.095
2187.725,0.094
2187.785,0.093
2187.845,0.093
2187.906,0.092
2187.966,0.092
2188.026,0.091
2188.086,0.091
2188.147,0.091
2188.207,0.091
2188.267,0.091
2188.327,0.091
2188.388,0.091
2188.448,0.091
2188.508,0.091
2188.569,0.091
2188.629,0.092
2188.689,0.092
2188.749,0.093
2188.810,0.093
2188.870,0.094
2188.930,0.095
2188.990,0.097
2189.051,0.098
2189.111,0.101
2189.171,0.104
2189.231,0.108
2189.292,0.115
2189.352,0.125
2189.412,0.140
2189.472,0.162
2189.533,0.192
2189.593,0.233
2189.653,0.284
2189.714,0.344
2189.774,0.408
2189.834,0.467
2189.894,0.506
2189.955,0.513
2190.015,0.485
2190.075,0.432
2190.135,0.367
2190.196,0.304
2190.256,0.249
2190.316,0.204
2190.376,0.170
2190.437,0.146
2190.497,0.128
2190.557,0.117
2190.617,0.109
2190.678,0.104
2190.738,0.101
2190.798,0.098
2190.859,0.096
2190.919,0.095
2190.979,0.094
2191.039,0.093
2191.100,0.092
2191.160,0.091
2191.220,0.091
2191.281,0.090
2191.341,0.090
2191.401,0.090
2191.461,0.090
2191.521,0.090
2191.582,0.090
2191.642,0.089
2191.702,0.089
2191.762,0.089
2191.823,0.089
2191.883,0.090
2191.943,0.090
2192.004,0.090
2192.064,0.091
2192.124,0.091
2192.184,0.092
2192.245,0.092
2192.305,0.093
2192.365,0.095
2192.426,0.097
2192.486,0.099
2192.546,0.102
2192.606,0.107
2192.667,0.114
2192.727,0.125
2192.787,0.142
2192.847,0.166
2192.907,0.199
2192.968,0.242
2193.028,0.294
2193.088,0.353
2193.149,0.410
2193.209,0.455
2193.269,0.476
2193.329,0.464
2193.390,0.424
2193.450,0.368
2193.510,0.308
2193.571,0.253
2193.631,0.207
2193.691,0.171
2193.751,0.145
2193.812,0.127
2193.872,0.115
2193.932,0.107
2193.992,0.102
2194.053,0.099
2194.113,0.096
2194.173,0.094
2194.233,0.093
2194.294,0.092
2194.354,0.091
2194.414,0.091
2194.474,0.090
2194.535,0.090
2194.595,0.089
2194.655,0.089
2194.716,0.089
2194.776,0.089
2194.836,0.089
2194.896,0.089
2194.957,0.089
2195.017,0.088
2195.077,0.088
2195.137,0.088
2195.198,0.088
2195.258,0.089
2195.318,0.089
2195.378,0.090
2195.439,0.090
2195.499,0.090
2195.559,0.091
2195.619,0.092
2195.680,0.093
2195.740,0.094
2195.800,0.096
2195.861,0.099
2195.921,0.103
2195.981,0.110
2196.041,0.120
2196.102,0.136
2196.162,0.158
2196.222,0.190
2196.282,0.231
2196.343,0.280
2196.403,0.334
2196.463,0.385
2196.523,0.422
2196.584,0.436
2196.644,0.421
2196.704,0.382
2196.764,0.330
2196.825,0.276
2196.885,0.226
2196.945,0.186
2197.006,0.155
2197.066,0.133
2197.126,0.118
2197.186,0.108
2197.247,0.102
2197.307,0.098
2197.367,0.095
2197.427,0.093
2197.488,0.092
2197.548,0.091
2197.608,0.090
2197.668,0.090
2197.729,0.089
2197.789,0.089
2197.849,0.088
2197.910,0.088
2197.970,0.087
2198.030,0.087
2198.090,0.087
2198.151,0.088
2198.211,0.088
2198.271,0.088
2198.331,0.087
2198.392,0.087
2198.452,0.087
2198.512,0.087
2198.573,0.088
2198.633,0.088
2198.693,0.088
2198.753,0.089
2198.813,0.089
2198.874,0.089
2198.934,0.090
2198.994,0.091
2199.055,0.093
2199.115,0.095
2199.175,0.098
2199.235,0.103
2199.296,0.111
2199.356,0.123
2199.416,0.142
2199.476,0.168
2199.537,0.204
2199.597,0.247
2199.657,0.295
2199.718,0.342
2199.778,0.379
2199.838,0.396
2199.898,0.388
2199.958,0.357
2200.019,0.312
2200.079,0.263
2200.139,0.218
2200.200,0.179
2200.260,0.149
2200.320,0.128
2200.380,0.113
2200.441,0.104
2200.501,0.099
2200.561,0.095
2200.621,0.093
2200.682,0.091
2200.742,0.090
2200.802,0.089
2200.863,0.088
2200.923,0.088
2200.983,0.088
2201.043,0.087
2201.104,0.087
2201.164,0.087
2201.224,0.086
2201.284,0.086
2201.345,0.086
2201.405,0.086
2201.465,0.087
2201.525,0.087
2201.586,0.086
2201.646,0.086
2201.706,0.086
2201.767,0.086
2201.827,0.086
2201.887,0.087
2201.947,0.087
2202.008,0.088
2202.068,0.088
2202.128,0.088
2202.188,0.089
2202.249,0.090
2202.309,0.091
2202.369,0.093
2202.429,0.096
2202.490,0.101
2202.550,0.109
2202.610,0.122
2202.670,0.141
2202.731,0.167
2202.791,0.202
2202.851,0.243
2202.912,0.286
2202.972,0.325
2203.032,0.352
2203.092,0.358
2203.153,0.342
2203.213,0.309
2203.273,0.267
2203.333,0.223
2203.394,0.185
2203.454,0.153
2203.514,0.130
2203.574,0.114
2203.635,0.104
2203.695,0.097
2203.755,0.094
2203.815,0.091
2203.876,0.090
2203.936,0.089
2203.996,0.088
2204.057,0.087
2204.117,0.087
2204.177,0.087
2204.237,0.086
2204.298,0.086
2204.358,0.086
2204.418,0.085
2204.478,0.085
2204.539,0.085
2204.599,0.085
2204.659,0.085
2204.719,0.085
2204.780,0.085
2204.840,0.085
2204.900,0.085
2204.960,0.085
2205.021,0.085
2205.081,0.086
2205.141,0.086
2205.202,0.086
2205.262,0.086
2205.322,0.087
2205.382,0.087
2205.443,0.088
2205.503,0.089
2205.563,0.090
2205.623,0.093
2205.684,0.097
2205.744,0.104
2205.804,0.115
2205.865,0.131
2205.925,0.155
2205.985,0.186
2206.045,0.222
2206.105,0.260
2206.166,0.294
2206.226,0.317
2206.286,0.322
2206.347,0.308
2206.407,0.278
2206.467,0.241
2206.527,0.203
2206.588,0.169
2206.648,0.141
2206.708,0.121
2206.769,0.107
2206.829,0.099
2206.889,0.094
2206.949,0.091
2207.010,0.089
2207.070,0.088
2207.130,0.087
2207.190,0.086
2207.250,0.086
2207.311,0.086
2207.371,0.086
2207.431,0.085
2207.492,0.085
2207.552,0.085
2207.612,0.084
2207.672,0.084
2207.733,0.085
2207.793,0.085
2207.853,0.085
2207.914,0.085
2207.974,0.085
2208.034,0.084
2208.094,0.084
2208.155,0.084
2208.215,0.085
2208.275,0.085
2208.335,0.085
2208.396,0.085
2208.456,0.086
2208.516,0.086
2208.576,0.086
2208.637,0.087
2208.697,0.088
2208.757,0.089
2208.817,0.092
2208.878,0.097
2208.938,0.104
2208.998,0.117
2209.059,0.135
2209.119,0.160
2209.179,0.190
2209.239,0.223
2209.300,0.254
2209.360,0.278
2209.420,0.288
2209.480,0.281
2209.541,0.260
2209.601,0.230
2209.661,0.196
2209.721,0.165
2209.782,0.139
2209.842,0.119
2209.902,0.105
2209.962,0.097
2210.023,0.092
2210.083,0.089
2210.143,0.087
2210.204,0.086
2210.264,0.086
2210.324,0.085
2210.384,0.085
2210.445,0.085
2210.505,0.085
2210.565,0.085
2210.625,0.084
2210.686,0.084
2210.746,0.084
2210.806,0.084
2210.866,0.084
2210.927,0.084
2210.987,0.084
2211.047,0.084
2211.107,0.084
2211.168,0.084
2211.228,0.084
2211.288,0.084
2211.349,0.084
2211.409,0.084
2211.469,0.084
2211.529,0.084
2211.590,0.085
2211.650,0.085
2211.710,0.085
2211.771,0.085
2211.831,0.086
2211.891,0.088
2211.951,0.090
2212.011,0.094
2212.072,0.102
2212.132,0.114
2212.192,0.131
2212.252,0.154
2212.313,0.181
2212.373,0.210
2212.433,0.235
2212.494,0.253
2212.554,0.257
2212.614,0.248
2212.674,0.227
2212.735,0.199
2212.795,0.171
2212.855,0.145
2212.916,0.124
2212.976,0.108
2213.036,0.098
2213.096,0.092
2213.156,0.088
2213.217,0.087
2213.277,0.086
2213.337,0.085
2213.397,0.084
2213.458,0.084
2213.518,0.084
2213.578,0.084
2213.639,0.084
2213.699,0.084
2213.759,0.084
2213.819,0.083
2213.880,0.083
2213.940,0.083
2214.000,0.084
2214.061,0.084
2214.121,0.084
2214.181,0.083
2214.241,0.083
2214.302,0.083
2214.362,0.083
2214.422,0.083
2214.482,0.084
2214.542,0.084
2214.603,0.084
2214.663,0.084
2214.723,0.084
2214.784,0.084
2214.844,0.084
2214.904,0.085
2214.964,0.086
2215.025,0.088
2215.085,0.091
2215.145,0.097
2215.206,0.106
2215.266,0.121
2215.326,0.140
2215.386,0.162
2215.447,0.187
2215.507,0.209
2215.567,0.224
2215.627,0.229
2215.688,0.222
2215.748,0.206
2215.808,0.183
2215.868,0.158
2215.929,0.136
2215.989,0.117
2216.049,0.104
2216.109,0.095
2216.170,0.090
2216.230,0.087
2216.290,0.085
2216.351,0.084
2216.411,0.084
2216.471,0.084
2216.531,0.084
2216.592,0.084
2216.652,0.084
2216.712,0.083
2216.772,0.083
2216.833,0.083
2216.893,0.083
2216.953,0.083
2217.013,0.083
2217.074,0.083
2217.134,0.083
2217.194,0.083
2217.254,0.083
2217.315,0.083
2217.375,0.083
2217.435,0.083
2217.496,0.083
2217.556,0.083
2217.616,0.083
2217.676,0.083
2217.737,0.083
2217.797,0.083
2217.857,0.083
2217.917,0.084
2217.978,0.084
2218.038,0.085
2218.098,0.087
2218.158,0.091
2218.219,0.097
2218.279,0.107
2218.339,0.121
2218.399,0.139
2218.460,0.159
2218.520,0.179
2218.580,0.195
2218.641,0.204
2218.701,0.202
2218.761,0.192
2218.821,0.175
2218.882,0.154
2218.942,0.134
2219.002,0.117
2219.063,0.104
2219.123,0.095
2219.183,0.089
2219.243,0.086
2219.303,0.085
2219.364,0.084
2219.424,0.083
2219.484,0.083
2219.544,0.083
2219.605,0.083
2219.665,0.083
2219.725,0.083
2219.786,0.083
2219.846,0.083
2219.906,0.083
2219.966,0.083
2220.027,0.083
2220.087,0.083
2220.147,0.083
2220.208,0.083
2220.268,0.083
2220.328,0.083
2220.388,0.082
2220.448,0.083
2220.509,0.083
2220.569,0.083
2220.629,0.083
2220.689,0.083
2220.750,0.083
2220.810,0.083
2220.870,0.083
2220.931,0.083
2220.991,0.084
2221.051,0.084
2221.111,0.086
2221.172,0.089
2221.232,0.095
2221.292,0.104
2221.353,0.116
2221.413,0.131
2221.473,0.148
2221.533,0.164
2221.594,0.177
2221.654,0.182
2221.714,0.180
2221.774,0.170
2221.834,0.155
2221.895,0.138
2221.955,0.122
2222.015,0.108
2222.076,0.098
2222.136,0.091
2222.196,0.087
2222.256,0.085
2222.317,0.083
2222.377,0.083
2222.437,0.083
2222.498,0.083
2222.558,0.083
2222.618,0.083
2222.678,0.083
2222.739,0.083
2222.799,0.083
2222.859,0.082
2222.919,0.082
2222.979,0.082
2223.040,0.083
2223.100,0.083
2223.160,0.083
2223.221,0.083
2223.281,0.082
2223.341,0.082
2223.401,0.082
2223.462,0.082
2223.522,0.083
2223.582,0.083
2223.643,0.083
2223.703,0.083
2223.763,0.083
2223.823,0.082
2223.884,0.083
2223.944,0.083
2224.004,0.083
2224.064,0.085
2224.125,0.087
2224.185,0.091
2224.245,0.098
2224.305,0.107
2224.366,0.119
2224.426,0.133
2224.486,0.147
2224.546,0.157
2224.607,0.163
2224.667,0.162
2224.727,0.155
2224.788,0.144
2224.848,0.130
2224.908,0.117
2224.968,0.105
2225.029,0.096
2225.089,0.090
2225.149,0.086
2225.209,0.084
2225.270,0.083
2225.330,0.083
2225.390,0.083
2225.450,0.083
2225.511,0.083
2225.571,0.083
2225.631,0.083
2225.691,0.083
2225.752,0.082
2225.812,0.082
2225.872,0.082
2225.933,0.082
2225.993,0.082
2226.053,0.082
2226.113,0.082
2226.174,0.082
2226.234,0.082
2226.294,0.082
2226.354,0.082
2226.415,0.082
2226.475,0.082
2226.535,0.082
2226.595,0.082
2226.656,0.082
2226.716,0.082
2226.776,0.082
2226.836,0.082
2226.897,0.083
2226.957,0.083
2227.017,0.084
2227.078,0.087
2227.138,0.091
2227.198,0.098
2227.258,0.106
2227.319,0.117
2227.379,0.128
2227.439,0.138
2227.500,0.145
2227.560,0.147
2227.620,0.144
2227.680,0.137
2227.740,0.127
2227.801,0.115
2227.861,0.105
2227.921,0.096
2227.981,0.090
2228.042,0.086
2228.102,0.084
2228.162,0.083
2228.223,0.083
2228.283,0.082
2228.343,0.082
2228.403,0.082
2228.464,0.082
2228.524,0.082
2228.584,0.082
2228.645,0.082
2228.705,0.082
2228.765,0.082
2228.825,0.082
2228.885,0.082
2228.946,0.082
2229.006,0.082
2229.066,0.082
2229.126,0.082
2229.187,0.082
2229.247,0.082
2229.307,0.082
2229.368,0.082
2229.428,0.082
2229.488,0.082
2229.548,0.082
2229.609,0.082
2229.669,0.082
2229.729,0.082
2229.790,0.082
2229.850,0.083
2229.910,0.084
2229.970,0.086
2230.031,0.089
2230.091,0.095
2230.151,0.102
2230.211,0.110
2230.272,0.119
2230.332,0.127
2230.392,0.132
2230.452,0.133
2230.513,0.131
2230.573,0.125
2230.633,0.117
2230.693,0.108
2230.754,0.099
2230.814,0.092
2230.874,0.088
2230.935,0.085
2230.995,0.083
2231.055,0.083
2231.115,0.082
2231.176,0.082
2231.236,0.082
2231.296,0.082
2231.356,0.082
2231.417,0.082
2231.477,0.082
2231.537,0.082
2231.597,0.082
2231.658,0.082
2231.718,0.082
2231.778,0.082
2231.838,0.082
2231.899,0.082
2231.959,0.082
2232.019,0.082
2232.080,0.082
2232.140,0.082
2232.200,0.082
2232.260,0.082
2232.321,0.082
2232.381,0.082
2232.441,0.082
2232.501,0.082
2232.562,0.082
2232.622,0.082
2232.682,0.082
2232.742,0.083
2232.803,0.084
2232.863,0.087
2232.923,0.090
2232.983,0.096
2233.044,0.102
2233.104,0.109
2233.164,0.115
2233.225,0.119
2233.285,0.121
2233.345,0.120
2233.405,0.117
2233.466,0.111
2233.526,0.104
2233.586,0.097
2233.646,0.091
2233.707,0.087
2233.767,0.084
2233.827,0.083
2233.887,0.083
2233.948,0.082
2234.008,0.082
2234.068,0.082
2234.129,0.082
2234.189,0.082
2234.249,0.082
2234.309,0.082
2234.370,0.082
2234.430,0.082
2234.490,0.082
2234.550,0.082
2234.611,0.082
2234.671,0.082
2234.731,0.082
2234.792,0.082
2234.852,0.082
2234.912,0.082
2234.972,0.082
2235.032,0.082
2235.093,0.082
2235.153,0.082
2235.213,0.082
2235.274,0.082
2235.334,0.082
2235.394,0.082
2235.454,0.082
2235.515,0.082
2235.575,0.083
2235.635,0.084
2235.695,0.086
2235.756,0.090
2235.816,0.094
2235.876,0.099
2235.937,0.104
2235.997,0.108
2236.057,0.111
2236.117,0.111
2236.177,0.110
2236.238,0.106
2236.298,0.101
2236.358,0.096
2236.419,0.091
2236.479,0.087
2236.539,0.085
2236.599,0.083
2236.660,0.082
2236.720,0.082
2236.780,0.082
2236.840,0.082
2236.901,0.082
2236.961,0.082
2237.021,0.082
2237.082,0.082
2237.142,0.082
2237.202,0.082
2237.262,0.082
2237.323,0.082
2237.383,0.082
2237.443,0.082
2237.503,0.082
2237.564,0.082
2237.624,0.082
2237.684,0.082
2237.744,0.082
2237.805,0.082
2237.865,0.082
2237.925,0.082
2237.986,0.082
2238.046,0.082
2238.106,0.082
2238.166,0.082
2238.227,0.082
2238.287,0.082
2238.347,0.083
2238.407,0.083
2238.468,0.085
2238.528,0.087
2238.588,0.090
2238.648,0.094
2238.709,0.098
2238.769,0.101
2238.829,0.102
2238.889,0.103
2238.950,0.101
2239.010,0.099
2239.070,0.095
2239.131,0.092
2239.191,0.088
2239.251,0.086
2239.311,0.084
2239.372,0.083
2239.432,0.082
2239.492,0.082
2239.552,0.082
2239.613,0.082
2239.673,0.082
2239.733,0.082
2239.793,0.082
2239.854,0.082
2239.914,0.082
2239.974,0.082
2240.034,0.082
2240.095,0.082
2240.155,0.082
2240.215,0.082
2240.276,0.082
2240.336,0.082
2240.396,0.082
2240.456,0.082
2240.517,0.082
2240.577,0.082
2240.637,0.082
2240.697,0.082
2240.758,0.082
2240.818,0.082
2240.878,0.082
2240.938,0.082
2240.999,0.082
2241.059,0.082
2241.119,0.083
2241.179,0.084
2241.240,0.085
2241.300,0.087
2241.360,0.089
2241.421,0.092
2241.481,0.094
2241.541,0.095
2241.601,0.096
2241.662,0.096
2241.722,0.094
2241.782,0.092
2241.842,0.089
2241.903,0.087
2241.963,0.085
2242.023,0.084
2242.083,0.083
2242.144,0.082
2242.204,0.082
2242.264,0.082
2242.324,0.082
2242.385,0.082
2242.445,0.082
2242.505,0.082
2242.566,0.082
2242.626,0.082
2242.686,0.082
2242.746,0.082
2242.807,0.082
2242.867,0.082
2242.927,0.082
2242.988,0.082
2243.048,0.082
2243.108,0.082
2243.168,0.082
2243.229,0.082
2243.289,0.082
2243.349,0.082
2243.409,0.082
2243.469,0.082
2243.530,0.082
2243.590,0.082
2243.650,0.082
2243.711,0.082
2243.771,0.082
2243.831,0.082
2243.891,0.083
2243.952,0.084
2244.012,0.086
2244.072,0.087
2244.133,0.089
2244.193,0.090
2244.253,0.091
2244.313,0.091
2244.374,0.090
2244.434,0.089
2244.494,0.088
2244.554,0.086
2244.615,0.085
2244.675,0.084
2244.735,0.083
2244.795,0.082
2244.856,0.082
2244.916,0.082
2244.976,0.082
2245.036,0.082
2245.097,0.082
2245.157,0.082
2245.217,0.082
2245.278,0.082
2245.338,0.082
2245.398,0.082
2245.458,0.082
2245.519,0.082
2245.579,0.082
2245.639,0.082
2245.699,0.082
2245.760,0.082
2245.820,0.082
2245.880,0.082
2245.940,0.082
2246.001,0.082
2246.061,0.082
2246.121,0.082
2246.181,0.082
2246.242,0.082
2246.302,0.082
2246.362,0.082
2246.423,0.082
2246.483,0.082
2246.543,0.083
2246.603,0.083
2246.664,0.084
2246.724,0.085
2246.784,0.086
2246.844,0.087
2246.905,0.088
2246.965,0.088
2247.025,0.087
2247.085,0.086
2247.146,0.085
2247.206,0.084
2247.266,0.084
2247.326,0.083
2247.387,0.082
2247.447,0.082
2247.507,0.082
2247.568,0.081
2247.628,0.081
2247.688,0.081
2247.748,0.082
2247.809,0.082
2247.869,0.082
2247.929,0.082
2247.990,0.082
2248.050,0.082
2248.110,0.082
2248.170,0.082
2248.230,0.082
2248.291,0.082
2248.351,0.082
2248.411,0.082
2248.471,0.082
2248.532,0.082
2248.592,0.082
2248.652,0.082
2248.713,0.082
2248.773,0.082
2248.833,0.082
2248.893,0.082
2248.954,0.082
2249.014,0.082
2249.074,0.082
2249.135,0.082
2249.195,0.082
2249.255,0.083
2249.315,0.083
2249.375,0.084
2249.436,0.084
2249.496,0.084
2249.556,0.084
2249.616,0.084
2249.677,0.084
2249.737,0.084
2249.797,0.083
2249.858,0.083
2249.918,0.083
2249.978,0.082
2250.038,0.082
2250.099,0.082
2250.159,0.082
2250.219,0.082
2250.280,0.082
2250.340,0.082
2250.400,0.082
2250.460,0.082
2250.521,0.082
2250.581,0.082
2250.641,0.082
2250.701,0.082
2250.761,0.082
2250.822,0.082
2250.882,0.082
2250.942,0.082
2251.003,0.082
2251.063,0.082
2251.123,0.082
2251.183,0.082
2251.244,0.082
2251.304,0.082
2251.364,0.081
2251.425,0.081
2251.485,0.081
2251.545,0.081
2251.605,0.081
2251.666,0.081
2251.726,0.082
2251.786,0.082
2251.846,0.082
2251.906,0.083
2251.967,0.083
2252.027,0.083
2252.087,0.084
2252.148,0.084
2252.208,0.084
2252.268,0.083
2252.328,0.083
2252.389,0.083
2252.449,0.083
2252.509,0.082
2252.570,0.082
2252.630,0.082
2252.690,0.082
2252.750,0.082
2252.811,0.082
2252.871,0.082
2252.931,0.082
2252.991,0.082
2253.052,0.082
2253.112,0.082
2253.172,0.082
2253.232,0.082
2253.293,0.081
2253.353,0.081
2253.413,0.081
2253.473,0.081
2253.534,0.081
2253.594,0.081
2253.654,0.081
2253.715,0.081
2253.775,0.081
2253.835,0.081
2253.895,0.082
2253.956,0.082
2254.016,0.082
2254.076,0.082
2254.136,0.082
2254.197,0.082
2254.257,0.082
2254.317,0.082
2254.377,0.082
2254.438,0.083
2254.498,0.083
2254.558,0.083
2254.618,0.083
2254.679,0.083
2254.739,0.083
2254.799,0.083
2254.860,0.082
2254.920,0.082
2254.980,0.082
2255.040,0.082
2255.101,0.082
2255.161,0.082
2255.221,0.081
2255.281,0.081
2255.342,0.081
2255.402,0.081
2255.462,0.081
2255.522,0.081
2255.583,0.081
2255.643,0.081
2255.703,0.081
2255.763,0.081
2255.824,0.081
2255.884,0.082
2255.944,0.082
2256.005,0.082
2256.065,0.082
2256.125,0.082
2256.185,0.082
2256.246,0.082
2256.306,0.082
2256.366,0.082
2256.427,0.082
2256.487,0.082
2256.547,0.082
2256.607,0.082
2256.667,0.082
2256.728,0.082
2256.788,0.082
2256.848,0.082
2256.908,0.082
2256.969,0.082
2257.029,0.082
2257.089,0.082
2257.150,0.082
2257.210,0.081
2257.270,0.081
2257.330,0.081
2257.391,0.081
2257.451,0.081
2257.511,0.081
2257.572,0.081
2257.632,0.081
2257.692,0.081
2257.752,0.081
2257.813,0.082
2257.873,0.082
2257.933,0.082
2257.993,0.082
2258.053,0.082
2258.114,0.082
2258.174,0.082
2258.234,0.082
2258.295,0.082
2258.355,0.082
2258.415,0.082
2258.475,0.082
2258.536,0.082
2258.596,0.082
2258.656,0.082
2258.717,0.082
2258.777,0.082
2258.837,0.082
2258.897,0.082
2258.958,0.081
2259.018,0.081
2259.078,0.081
2259.138,0.081
2259.198,0.080
2259.259,0.080
2259.319,0.080
2259.379,0.080
2259.440,0.081
2259.500,0.081
2259.560,0.081
2259.620,0.082
2259.681,0.082
2259.741,0.082
2259.801,0.082
2259.862,0.082
2259.922,0.082
2259.982,0.082
2260.042,0.082
2260.103,0.082
2260.163,0.082
2260.223,0.082
2260.283,0.082
2260.344,0.082
2260.404,0.082
2260.464,0.082
2260.524,0.082
2260.585,0.082
2260.645,0.082
2260.705,0.082
2260.765,0.082
2260.826,0.081
2260.886,0.081
2260.946,0.081
2261.007,0.081
2261.067,0.080
2261.127,0.080
2261.187,0.080
2261.248,0.080
2261.308,0.080
2261.368,0.081
2261.428,0.081
2261.489,0.081
2261.549,0.081
2261.609,0.082
2261.669,0.082
2261.730,0.082
2261.790,0.082
2261.850,0.082
2261.910,0.082
2261.971,0.082
2262.031,0.082
2262.091,0.082
2262.152,0.082
2262.212,0.082
2262.272,0.082
2262.332,0.082
2262.393,0.082
2262.453,0.082
2262.513,0.082
2262.573,0.081
2262.634,0.081
2262.694,0.081
2262.754,0.081
2262.814,0.080
2262.875,0.080
2262.935,0.080
2262.995,0.080
2263.055,0.080
2263.116,0.080
2263.176,0.080
2263.236,0.080
2263.297,0.081
2263.357,0.081
2263.417,0.081
2263.477,0.081
2263.538,0.082
2263.598,0.082
2263.658,0.082
2263.719,0.082
2263.779,0.082
2263.839,0.082
2263.899,0.082
2263.959,0.082
2264.020,0.082
2264.080,0.082
2264.140,0.082
2264.200,0.082
2264.261,0.082
2264.321,0.082
2264.381,0.082
2264.442,0.081
2264.502,0.081
2264.562,0.081
2264.622,0.081
2264.683,0.080
2264.743,0.080
2264.803,0.080
2264.864,0.080
2264.924,0.080
2264.984,0.080
2265.044,0.080
2265.104,0.081
2265.165,0.081
2265.225,0.081
2265.285,0.082
2265.345,0.082
2265.406,0.082
2265.466,0.082
2265.526,0.082
2265.587,0.082
2265.647,0.082
2265.707,0.082
2265.767,0.082
2265.828,0.082
2265.888,0.082
2265.948,0.082
2266.009,0.082
2266.069,0.082
2266.129,0.082
2266.189,0.082
2266.250,0.081
2266.310,0.081
2266.370,0.081
2266.430,0.080
2266.491,0.080
2266.551,0.080
2266.611,0.079
2266.671,0.079
2266.732,0.080
2266.792,0.080
2266.852,0.080
2266.912,0.080
2266.973,0.081
2267.033,0.081
2267.093,0.082
2267.154,0.082
2267.214,0.082
2267.274,0.082
2267.334,0.082
2267.395,0.082
2267.455,0.082
2267.515,0.082
2267.575,0.082
2267.636,0.082
2267.696,0.082
2267.756,0.082
2267.816,0.082
2267.877,0.082
2267.937,0.082
2267.997,0.081
2268.057,0.081
2268.118,0.081
2268.178,0.081
2268.238,0.080
2268.299,0.080
2268.359,0.079
2268.419,0.079
2268.479,0.079
2268.540,0.080
2268.600,0.080
2268.660,0.080
2268.720,0.081
2268.781,0.081
2268.841,0.081
2268.901,0.082
2268.961,0.082
2269.022,0.082
2269.082,0.082
2269.142,0.082
2269.202,0.082
2269.263,0.082
2269.323,0.082
2269.383,0.082
2269.444,0.082
2269.504,0.082
2269.564,0.082
2269.624,0.082
2269.685,0.082
2269.745,0.081
2269.805,0.081
2269.865,0.081
2269.926,0.080
2269.986,0.080
2270.046,0.080
2270.106,0.080
2270.167,0.079
2270.227,0.079
2270.287,0.080
2270.348,0.080
2270.408,0.080
2270.468,0.081
2270.528,0.081
2270.589,0.081
2270.649,0.082
2270.709,0.082
2270.769,0.082
2270.830,0.082
2270.890,0.082
2270.950,0.082
2271.010,0.082
2271.071,0.082
2271.131,0.082
2271.191,0.082
2271.251,0.082
2271.312,0.082
2271.372,0.082
2271.432,0.082
2271.493,0.081
2271.553,0.081
2271.613,0.081
2271.673,0.080
2271.734,0.080
2271.794,0.080
2271.854,0.079
2271.914,0.079
2271.975,0.080
2272.035,0.080
2272.095,0.080
2272.156,0.080
2272.216,0.081
2272.276,0.081
2272.336,0.081
2272.396,0.082
2272.457,0.082
2272.517,0.082
2272.577,0.082
2272.638,0.082
2272.698,0.082
2272.758,0.082
2272.818,0.082
2272.879,0.082
2272.939,0.082
2272.999,0.082
2273.059,0.082
2273.120,0.082
2273.180,0.082
2273.240,0.081
2273.301,0.081
2273.361,0.081
2273.421,0.080
2273.481,0.080
2273.542,0.080
2273.602,0.080
2273.662,0.080
2273.722,0.080
2273.783,0.080
2273.843,0.080
2273.903,0.081
2273.963,0.081
2274.024,0.081
2274.084,0.082
2274.144,0.082
2274.205,0.082
2274.265,0.082
2274.325,0.082
2274.385,0.082
2274.446,0.082
2274.506,0.082
2274.566,0.082
2274.626,0.082
2274.687,0.082
2274.747,0.082
2274.807,0.082
2274.867,0.081
2274.928,0.081
2274.988,0.081
2275.048,0.081
2275.108,0.080
2275.169,0.080
2275.229,0.080
2275.289,0.080
2275.350,0.080
2275.410,0.080
2275.470,0.080
2275.530,0.080
2275.591,0.081
2275.651,0.081
2275.711,0.081
2275.771,0.082
2275.832,0.082
2275.892,0.082
2275.952,0.082
2276.012,0.082
2276.073,0.082
2276.133,0.082
2276.193,0.082
2276.253,0.082
2276.314,0.082
2276.374,0.082
2276.434,0.082
2276.495,0.082
2276.555,0.082
2276.615,0.081
2276.675,0.081
2276.736,0.081
2276.796,0.081
2276.856,0.080
2276.916,0.080
2276.977,0.080
2277.037,0.080
2277.097,0.080
2277.157,0.080
2277.218,0.081
2277.278,0.081
2277.338,0.081
2277.398,0.082
2277.459,0.082
2277.519,0.082
2277.579,0.082
2277.640,0.082
2277.700,0.082
2277.760,0.082
2277.820,0.082
2277.881,0.082
2277.941,0.082
2278.001,0.082
2278.061,0.082
2278.122,0.082
2278.182,0.082
2278.242,0.081
2278.302,0.081
2278.363,0.081
2278.423,0.081
2278.483,0.081
2278.543,0.080
2278.604,0.080
2278.664,0.081
2278.724,0.081
2278.785,0.081
2278.845,0.081
2278.905,0.081
2278.965,0.081
2279.026,0.082
2279.086,0.082
2279.146,0.082
2279.207,0.082
2279.267,0.082
2279.327,0.082
2279.387,0.082
2279.448,0.082
2279.508,0.082
2279.568,0.082
2279.628,0.082
2279.688,0.082
2279.749,0.082
2279.809,0.082
2279.869,0.081
2279.930,0.081
2279.990,0.081
2280.050,0.081
2280.110,0.081
2280.171,0.081
2280.231,0.081
2280.291,0.081
2280.352,0.081
2280.412,0.081
2280.472,0.081
2280.532,0.082
2280.593,0.082
2280.653,0.082
2280.713,0.082
2280.773,0.082
2280.833,0.082
2280.894,0.082
2280.954,0.082
2281.014,0.082
2281.075,0.082
2281.135,0.082
2281.195,0.082
2281.255,0.082
2281.316,0.082
2281.376,0.082
2281.436,0.082
2281.497,0.082
2281.557,0.082
2281.617,0.082
2281.677,0.081
2281.738,0.081
2281.798,0.081
2281.858,0.081
2281.918,0.081
2281.979,0.081
2282.039,0.081
2282.099,0.081
2282.159,0.081
2282.220,0.082
2282.280,0.082
2282.340,0.082
2282.400,0.082
2282.461,0.082
2282.521,0.082
2282.581,0.082
2282.642,0.082
2282.702,0.082
2282.762,0.082
2282.822,0.082
2282.883,0.082
2282.943,0.082
2283.003,0.082
2283.063,0.082
2283.124,0.082
2283.184,0.082
2283.244,0.082
2283.304,0.082
2283.365,0.082
2283.425,0.082
2283.485,0.082
2283.545,0.082
2283.606,0.082
2283.666,0.082
2283.726,0.082
2283.787,0.082
2283.847,0.082
2283.907,0.082
2283.967,0.082
2284.028,0.082
2284.088,0.082
2284.148,0.082
2284.208,0.081
2284.269,0.081
2284.329,0.081
2284.389,0.081
2284.449,0.081
2284.510,0.081
2284.570,0.081
2284.630,0.081
2284.690,0.082
2284.751,0.082
2284.811,0.082
2284.871,0.082
2284.932,0.082
2284.992,0.082
2285.052,0.082
2285.112,0.082
2285.173,0.082
2285.233,0.082
2285.293,0.082
2285.354,0.081
2285.414,0.081
2285.474,0.081
2285.534,0.081
2285.594,0.081
2285.655,0.081
2285.715,0.081
2285.775,0.081
2285.835,0.081
2285.896,0.081
2285.956,0.081
2286.016,0.082
2286.077,0.082
2286.137,0.082
2286.197,0.082
2286.257,0.082
2286.318,0.082
2286.378,0.082
2286.438,0.082
2286.499,0.082
2286.559,0.081
2286.619,0.081
2286.679,0.081
2286.740,0.081
2286.800,0.081
2286.860,0.081
2286.920,0.080
2286.980,0.080
2287.041,0.080
2287.101,0.080
2287.161,0.080
2287.222,0.080
2287.282,0.080
2287.342,0.081
2287.402,0.081
2287.463,0.081
2287.523,0.081
2287.583,0.081
2287.644,0.081
2287.704,0.081
2287.764,0.081
2287.824,0.082
2287.885,0.082
2287.945,0.082
2288.005,0.081
2288.065,0.081
2288.125,0.081
2288.186,0.081
2288.246,0.081
2288.306,0.081
2288.367,0.081
2288.427,0.081
2288.487,0.081
2288.547,0.080
2288.608,0.080
2288.668,0.080
2288.728,0.080
2288.789,0.080
2288.849,0.080
2288.909,0.080
2288.969,0.080
2289.030,0.080
2289.090,0.080
2289.150,0.080
2289.210,0.080
2289.271,0.081
2289.331,0.081
2289.391,0.081
2289.451,0.081
2289.512,0.081
2289.572,0.081
2289.632,0.081
2289.692,0.081
2289.753,0.081
2289.813,0.081
2289.873,0.080
2289.934,0.080
2289.994,0.080
2290.054,0.079
2290.114,0.079
2290.175,0.079
2290.235,0.080
2290.295,0.080
2290.355,0.080
2290.416,0.081
2290.476,0.081
2290.536,0.081
2290.596,0.081
2290.657,0.081
2290.717,0.081
2290.777,0.081
2290.837,0.081
2290.898,0.081
2290.958,0.081
2291.018,0.081
2291.079,0.080
2291.139,0.080
2291.199,0.080
2291.259,0.079
2291.320,0.079
2291.380,0.078
2291.440,0.078
2291.500,0.078
2291.561,0.078
2291.621,0.078
2291.681,0.078
2291.741,0.079
2291.802,0.079
2291.862,0.080
2291.922,0.080
2291.982,0.080
2292.043,0.081
2292.103,0.081
2292.163,0.081
2292.224,0.081
2292.284,0.081
2292.344,0.081
2292.404,0.081
2292.465,0.081
2292.525,0.081
2292.585,0.081
2292.646,0.081
2292.706,0.080
2292.766,0.080
2292.826,0.079
2292.886,0.079
2292.947,0.079
2293.007,0.078
2293.067,0.078
2293.127,0.079
2293.188,0.079
2293.248,0.079
2293.308,0.079
2293.369,0.079
2293.429,0.079
2293.489,0.079
2293.549,0.079
2293.610,0.079
2293.670,0.079
2293.730,0.079
2293.791,0.079
2293.851,0.079
2293.911,0.079
2293.971,0.079
2294.031,0.079
2294.092,0.079
2294.152,0.079
2294.212,0.078
2294.272,0.078
2294.333,0.078
2294.393,0.078
2294.453,0.078
2294.514,0.079
2294.574,0.079
2294.634,0.080
2294.694,0.080
2294.755,0.081
2294.815,0.081
2294.875,0.081
2294.936,0.081
2294.996,0.081
2295.056,0.081
2295.116,0.081
2295.177,0.081
2295.237,0.080
2295.297,0.080
2295.357,0.080
2295.417,0.079
2295.478,0.079
2295.538,0.078
2295.598,0.077
2295.659,0.077
2295.719,0.076
2295.779,0.076
2295.839,0.075
2295.900,0.075
2295.960,0.076
2296.020,0.076
2296.081,0.077
2296.141,0.078
2296.201,0.078
2296.261,0.079
2296.322,0.079
2296.382,0.080
2296.442,0.080
2296.502,0.080
2296.563,0.080
2296.623,0.080
2296.683,0.080
2296.743,0.080
2296.804,0.080
2296.864,0.079
2296.924,0.079
2296.984,0.079
2297.045,0.078
2297.105,0.078
2297.165,0.078
2297.226,0.078
2297.286,0.078
2297.346,0.079
2297.406,0.079
2297.467,0.079
2297.527,0.079
2297.587,0.080
2297.647,0.080
2297.708,0.080
2297.768,0.079
2297.828,0.079
2297.888,0.078
2297.949,0.077
2298.009,0.076
2298.069,0.075
2298.129,0.074
2298.190,0.074
2298.250,0.073
2298.310,0.073
2298.371,0.074
2298.431,0.074
2298.491,0.076
2298.551,0.077
2298.612,0.078
2298.672,0.079
2298.732,0.079
2298.792,0.080
2298.853,0.080
2298.913,0.081
2298.973,0.081
2299.033,0.081
2299.094,0.081
2299.154,0.081
2299.214,0.080
2299.274,0.080
2299.335,0.079
2299.395,0.079
2299.455,0.078
2299.516,0.078
2299.576,0.077
2299.636,0.077
2299.696,0.077
2299.757,0.077
2299.817,0.077
2299.877,0.078
2299.938,0.078
2299.998,0.078
2300.058,0.000
